F3,F4,C3,Cz,C4,P3,P4,accX,accY,accZ,label
8840.932519,8901.215576,8031.820093,7568.51963,7798.356917,8839.839832,6604.397614,18.4375,808.8125,-459.5625,1
-839.2820688,-857.5820284,-672.1060449,-635.0454402,-651.8559491,-837.5351821,-552.4447907,16,809.625,-456.6875,1
-562.3543828,-568.6960043,-496.9543399,-464.7284105,-482.4058034,-564.2880802,-405.3488735,14.1875,811.625,-455.25,1
100.6630737,103.2229524,86.14175544,77.13184294,82.49297458,102.4154371,65.23983285,16.9375,811.625,-452.875,1
3.097098271,2.28020323,0.8310611875,3.317542599,2.661547401,2.123573088,3.294120985,14.4375,806.625,-462.625,1
-2.422739521,-0.9577539127,0.03034440082,-0.7278993332,-1.090583507,-0.5824165303,1.216016277,12.875,808.0625,-459,1
-0.007042636578,0.4225683432,-1.416996768,-0.9806796215,-0.8579341612,-0.4152079629,0.9823242783,11.625,808.875,-460.3125,1
1.288425927,-0.1086410074,2.616991718,1.169825594,1.701494975,0.9567532727,-2.985723973,12.4375,810.4375,-455.375,1
-1.571950609,-1.02938958,-2.133200959,-0.7477599463,-2.03498357,-2.127277616,-0.7034570763,15.9375,812,-452.5625,1
4.316183279,3.404462805,1.537765989,1.184849422,2.069614545,2.20800778,1.081268557,16.5625,813.1875,-450.875,1
-2.844236979,-1.841944973,-0.4470626706,-1.389990607,0.2026265881,-1.627455439,1.513315371,16.625,808.625,-457.875,2
-2.925553922,-2.480461289,-3.256870435,-2.421372741,-5.69826695,-0.3166991527,-5.60846328,16.25,809.0625,-460.3125,2
2.533634323,0.8643683638,4.022198857,2.345924781,5.008504622,0.8863008262,3.304085377,21.5,805.125,-465.25,1
0.01955783178,0.2628185427,-3.302849119,-0.2430782384,-1.626653242,-1.030376416,0.964002292,23.5625,799.375,-474.125,1
0.3485119104,1.615566202,2.359874703,1.42789377,1.845339159,0.7195186655,1.81008328,13.3125,802.3125,-470.125,0
-2.007951246,-2.364272193,-1.310290007,-2.514014519,-2.33802803,-0.2419859717,-4.244996238,18.75,806.8125,-463,0
1.020720986,1.450412077,-0.7056411728,2.074404155,0.9303960913,0.59683335,5.644190605,10.4375,805.5,-464.625,0
0.8517560465,0.9208303949,2.312461977,-0.0007687593508,1.362442025,-0.7939091013,-4.768113679,10.5625,794,-479.375,1
-0.4477527949,-2.010589541,-1.35401738,-1.593210723,-1.857264852,0.1275168618,0.5358732072,6.9375,790.5,-488.625,1
1.945616278,3.134719553,2.04057405,2.908006246,2.090515051,1.574192642,3.35308031,7.625,787.4375,-489.75,1
-6.38747185,-7.554684672,-4.294636843,-5.164044337,-5.157430992,-3.02897061,-5.379580463,2,785.375,-492.5,2
8.349527389,9.749132948,4.38565007,6.606491294,7.908261371,2.950285797,5.506994773,4.125,780.75,-501.3125,2
-0.8199414645,-2.498889629,1.102324306,-0.9544721563,-2.987797359,1.524435428,-2.019360502,-0.4375,773.5625,-503.75,2
-2.677081699,-0.8815568474,-2.016111186,-1.811940989,-0.5654430205,-2.240825831,-0.6166724151,5,776.9375,-500.625,2
-0.3633932034,-0.4510437047,-1.533293565,-1.008761369,-0.2164957091,-0.8185845081,-0.03060924588,8.625,788.375,-486.75,2
0.0586611674,-0.1941480678,0.173398054,0.8539254625,0.3749359784,1.050614697,-0.4407697777,9.4375,785.625,-492.8125,2
-0.5271267514,-0.7630093136,-0.1369038342,-1.760336209,-2.330360016,-0.4698962418,1.097025516,8.1875,776.375,-501.3125,2
-0.5678806112,0.08577605102,-0.4607252918,1.084846246,1.182523919,-2.289137347,-3.191349653,3.6875,782,-497.125,2
0.4032919167,-0.8655948615,-0.001008741767,-0.7970651812,-0.8882812151,2.11350537,4.749528798,6.8125,777.0625,-500.0625,1
0.874713692,1.563898329,1.289653219,1.270818185,2.265240451,-1.239908282,-0.6486723104,0.8125,782.6875,-497.625,1
-0.6109207454,-0.3193403476,-0.9420799142,-0.4104103648,-1.162525622,1.174335928,-0.07213710123,0.375,785.3125,-493.625,1
-0.9204675755,-1.921449573,-0.5353981719,-1.083570951,-1.009954537,-0.443073238,-3.464995958,0.5625,788.375,-489.1875,1
1.759149637,2.861958204,3.118642595,3.013890947,1.923920027,1.102205894,1.349153265,3.8125,785.5625,-492.375,1
0.09749822095,-0.3406305682,-1.657828005,-2.046199067,-1.253687457,-0.4133808876,2.976873058,10.0625,782.6875,-494.6875,0
-2.706721111,-2.348389618,-3.597475961,-2.636467087,-0.8901600916,-2.374487749,-5.56061995,11.3125,784.75,-493.5,0
5.07863363,3.396222814,6.040098963,3.866928961,2.148814384,3.085655831,4.580264433,17.6875,794.5625,-477.6875,0
-5.336812541,-3.488778351,-4.255913683,-2.218017958,-2.653384381,-2.385567276,-2.188259044,-0.25,782.375,-494.5625,0
4.104877197,3.030392326,2.777140164,2.024425729,4.5850568,2.491553308,-0.9283224303,1.875,775.25,-505.5625,0
-4.54485785,-4.290193731,-1.742245052,-3.173095751,-6.0197418,-3.248046784,0.4079004116,5.9375,791.75,-485.125,0
2.002129286,2.464537355,-0.5052226094,2.728576671,3.548795007,3.40147287,3.631577626,15,807.4375,-459.875,0
-0.8447275118,-1.281443814,0.2528012655,-1.093750662,-1.36562046,-3.019267729,-6.626185028,13.8125,777.875,-502.625,1
3.086985614,2.858180884,0.7333386481,0.2663207544,1.413458199,1.499036148,5.388545145,14.3125,780.625,-497.8125,1
-3.574973753,-3.593599837,-1.318016691,-0.9908099402,-2.273229663,-0.1567016327,-1.955718379,7.4375,803.875,-467.25,1
2.080964434,2.505334655,4.43725871,1.118050917,0.780255035,-0.2473200839,-0.7688335618,15.3125,797.875,-476.6875,1
-0.09252909517,-0.4291119023,-15.75477623,0.1164937122,1.068701095,0.4764736002,0.5580683856,10.1875,787.625,-488.25,1
-0.7069798044,-0.1303002636,18.26138558,0.9352309618,0.2499305197,0.5761657078,4.678815921,6.8125,782.875,-496.3125,1
1.667108079,1.149718157,-4.699882728,0.05216958373,0.382330536,0.8962915216,-4.574335068,10.3125,782.625,-496.8125,2
-2.146251156,-2.516417907,-2.678739919,-2.977594001,-2.691877373,-1.713273535,0.1783599098,16.3125,787.4375,-489.6875,2
3.217211161,4.985954342,0.8685565006,3.804558822,4.210037832,-0.1739132543,0.10625033,18,795.25,-479.625,2
-0.7657139735,-2.991711701,1.911357754,-0.789777929,-2.514817554,-0.6158877969,-1.211390134,11.3125,789.4375,-487.9375,2
-0.910220156,0.189046612,-1.876948881,-1.441072605,-0.9128855442,-0.3168617639,1.931869053,7.3125,785.5625,-492.6875,2
0.09073767603,-2.427253609,0.8468046006,-0.1197207035,2.697000639,1.373207036,-2.110184296,7.625,779.5625,-497.6875,2
0.7933251701,1.971186496,1.259970711,1.974923689,-4.123339567,0.8670115059,1.843882058,14.375,772.0625,-505,2
-1.613908153,0.3111938557,-2.368535376,-1.373654132,4.705592398,-0.5088993246,2.08439235,13,778.625,-499.25,2
0.001818503048,0.5627270945,1.763487706,0.3814661723,-1.688896995,0.08231124782,0.8956318661,14.9375,779.125,-497.625,2
1.403149951,-1.15967721,0.5096937199,0.3779937807,-1.803592187,0.6415040646,-3.23709984,10.6875,780.125,-497.0625,2
-1.003078586,0.08209857634,-2.172454321,-1.656771633,1.049555693,-2.069482472,-1.754330513,23.25,779.25,-498.75,1
0.4390888405,1.218377605,1.539209293,1.76994699,0.4061442031,0.7238200945,2.262524465,14.125,780.875,-496.5,1
-0.9645463869,-1.499109334,-1.348482208,-1.713007862,0.5064404252,0.2345496359,0.4897794116,12.75,782.625,-497.1875,1
1.102145134,1.062026304,1.518925876,2.007731517,-1.107994623,0.812369225,-1.167547199,11.9375,781.875,-495.0625,1
-0.2102121741,-0.461009075,-1.188596354,-0.9420487915,0.3472918373,-0.67820918,1.771454312,13.5625,780.4375,-496.3125,1
-0.5893446939,0.5906932252,-0.282070612,0.1392600364,0.5004667762,0.09485625785,-3.062036852,13.375,777.5625,-500.875,1
0.8790222451,-1.068132981,0.9361894805,-0.6840890235,-0.4587781169,-0.1177508875,1.060853485,10.8125,783.625,-493.1875,2
-0.07575267223,0.7521478151,0.2342958066,1.643735861,0.6777289703,-0.003475385319,4.670718605,7.8125,785,-491.9375,2
1.874395105,1.350888375,2.530079893,1.346848285,0.6379185927,2.101727355,-4.728182111,-9.75,782.625,-495.8125,2
-18.68691444,-7.580710818,-16.02029563,-11.6824162,-6.332353367,-9.074286293,-3.636389757,9.9375,775.875,-504.5,2
25.0547181,6.883452275,18.07508097,10.20519316,6.502513877,6.945281269,4.504740943,25.0625,781.8125,-495,2
-8.80995566,-1.812441226,-6.052547788,-0.378203087,-1.196147246,0.2111942766,-0.5976007872,32.625,778.6875,-496.375,2
-3.558358903,-2.370633668,-1.707398716,-1.925823769,-2.247411951,-2.176070692,-0.772233427,15.9375,776.5,-500.9375,2
4.555840647,2.590453755,1.619768985,0.1768418126,2.746443566,1.616389873,1.583284535,23.9375,781.0625,-494.8125,2
-2.858121826,-1.503295503,-1.395765835,-0.5968934509,-3.465020901,-0.9390922349,-3.641406542,28.125,779.625,-497.125,2
9.02096352,5.475468868,6.316124672,4.61263768,6.497544055,6.075545282,1.50391995,16.75,789.875,-484.125,2
-9.018949375,-4.394348398,-4.962781653,-3.85581589,-3.512794189,-5.663501495,1.839527745,16.3125,796.5,-479.0625,2
1.088745552,-0.1011731619,0.7868095257,0.4748276842,-2.654299314,0.1837922151,-0.02286224141,22.5,800.4375,-468.1875,2
3.371388389,3.314326138,0.9156431598,0.7460934703,4.734293161,1.799716819,0.1692161928,16.1875,786.0625,-492.125,2
-2.706417541,-1.938980909,0.7653963319,0.02474690967,-1.683461094,-2.038897694,-2.053739718,14.0625,789.0625,-487.4375,2
2.632477611,-0.7176664009,-1.808291882,-0.1917904976,-1.78210985,-0.1831641719,1.94079551,13.8125,798,-476.375,2
-2.995659274,1.277582874,0.5684801075,0.07752727486,1.8519281,0.3817750765,-1.298014247,22.875,787.875,-487.5,1
-0.08206486796,-1.156634318,0.3534810566,-0.2995419627,0.1010246822,1.367559381,1.067398329,20.6875,775.5625,-501.5625,1
0.4486137582,-0.135551851,-1.019398712,-0.1989063233,-2.445494076,-1.083357968,-0.3851118571,11.9375,775.4375,-502.875,1
3.352157071,-0.008722705776,0.3152222041,0.1530039396,1.831419595,0.404453791,0.4165054372,14.6875,780.875,-497.9375,1
-6.81383188,-0.8987904333,-1.417858831,-1.306648977,-0.835382764,-0.5116141831,-1.610252235,13.5,783.9375,-493.875,1
4.973593855,1.894250395,1.457907283,1.806464456,0.792190006,-0.4872671547,3.233139529,13.4375,785.125,-492.3125,1
-2.632925092,-2.29947816,-0.3273608866,-1.10589161,-0.5981864529,1.139898951,-2.562275822,15.5,786.4375,-491.5,1
0.7262044671,0.2983522321,-0.04167399227,-0.5587513177,-0.8768425442,-0.7691187013,-2.052148325,15.25,785.0625,-492.625,1
1.705858449,1.320091451,0.3109431376,0.72487978,0.7258336082,0.08498216233,3.776936534,17.1875,787.3125,-490.125,1
-0.3163898574,-0.1256827789,-0.1035453665,0.9869558707,1.672682089,1.159845417,0.8304652322,17.75,786.875,-488.625,2
-0.07120703424,-0.001727219951,0.07635308976,-2.239024253,-2.298009664,-0.4275428828,-2.320347014,19.4375,786.375,-490.5,2
0.006855823678,1.319603376,0.4070623216,2.629759172,3.43363394,-0.9331699368,-0.8778443257,27.4375,784.125,-492.75,2
3.014750795,0.7351594012,2.077894826,1.030657377,-0.9303760944,4.130192774,1.396475786,23.875,782.75,-494.1875,2
-6.182677798,-2.827939107,-3.771199243,-3.025234928,-3.168962206,-5.462497353,0.61413854,20.25,777.125,-501,2
2.525428931,2.703550345,1.836995554,1.560211924,4.712252054,1.80329203,4.079960246,25.875,778.125,-498.125,2
-0.9445058414,-2.419563017,-1.180137564,-0.289012736,-4.930915787,1.445473853,-6.504440615,30.8125,785.75,-490.5625,2
2.715196189,1.210357606,1.901514796,-0.8417532264,2.177921812,-1.75234017,2.044613189,30.3125,781.625,-493.125,2
-1.934082293,0.9365322286,-0.4167747562,1.737452934,1.795895292,1.575468078,3.16770623,25.6875,783.25,-493,2
-0.580905255,-4.018596815,-3.340569059,-3.394345094,-5.807858719,-4.300288177,-7.480079881,27.3125,786,-490.25,2
1.920560789,3.247771516,4.852810111,2.849203551,5.168753276,4.933745366,5.088086596,34.25,778.5625,-498,1
3.786203099,5.389487137,1.00165528,3.111692428,3.839461937,0.1994537727,3.863271046,36.8125,772.875,-504.5,1
-5.609889228,-6.974815753,-4.03731057,-4.533451197,-6.411410021,-3.450094675,-6.985087189,31.5625,776.75,-499.9375,1
-2.856505567,-2.47398988,-2.440003709,-2.190408432,-0.2759724506,0.439859421,4.176053917,26.6875,785.9375,-489.8125,1
1.44474945,3.160190297,3.319105409,3.077619113,1.088455938,0.7791615884,-1.638661277,33,790.3125,-483.4375,1
5.371321442,5.058707528,1.984527493,2.044589362,3.996916396,0.8791031117,2.310003536,31.4375,794.125,-480.625,1
-5.279387466,-6.029295623,-3.020975927,-3.071117612,-4.295218963,-1.233282888,-4.677318455,33.125,788.6875,-486.3125,1
1.83570004,0.5430515547,1.102381281,0.1698280884,0.4264999617,1.378275374,3.55217554,38.625,795.625,-479.0625,1
-2.086483412,-1.258665198,-2.052918568,-0.8095953963,-0.9797734583,-1.724961492,-1.927662824,31.6875,786.625,-490.4375,0
1.705516547,2.554510522,2.047254907,2.83344574,2.255437221,0.3473039696,2.058943989,28.8125,781.9375,-495.625,0
-0.09952108361,-1.493059519,-1.571447248,-3.077043793,-2.885896682,0.6124470165,-5.70085929,22.3125,788.5625,-487.9375,0
3.541272108,3.098939586,2.988793134,4.144403438,4.249425247,0.993496508,7.360502297,27.25,798.5,-473.25,0
-4.484389005,-2.741371578,-0.6724612446,-2.450259582,-2.878508509,-0.1607798516,-2.622620033,4.0625,773.8125,-508.8125,0
2.388938213,0.560803703,-2.281987827,-0.03487484353,0.4899977598,-2.18915477,-3.733422839,1.0625,773.25,-503.375,0
1.808090311,1.594347195,2.914990789,1.410308162,1.57317391,2.807322417,5.872017721,13.8125,779.5625,-500.5625,0
-4.336864642,-2.618932649,-2.509650514,-1.512323342,-2.797663819,-2.162186066,-1.280625875,19.8125,793.25,-482.6875,0
4.659736018,1.422076783,1.940361812,0.4858150867,2.203921558,0.5274402028,-5.148828638,20.6875,791.0625,-484.625,0
-4.203833449,-1.094324697,-1.264208027,-0.1519857802,-0.619702152,-0.06849348423,3.017387458,40.1875,789.5,-484.375,0
-0.5581817614,0.08757848294,-0.7719224721,-1.760851453,-1.02062756,-1.252573688,2.048330993,36.8125,798.1875,-474.6875,0
-0.8788417809,-2.173967939,-1.474154336,0.41955325,-1.677346242,-0.609633935,-5.161691336,25.8125,802.75,-469.375,0
3.566395498,4.376024559,3.8964391,1.32511865,4.095881223,4.543309459,6.934063102,26.1875,795.6875,-477.625,0
0.688660542,-1.714129479,-1.497429564,0.9298410416,-1.850966986,-4.213237422,-6.891057719,44.375,804.3125,-468.5,0
-2.468539159,-0.2124651424,-0.06198411651,-1.30973716,-0.4868077561,1.825590453,4.594664926,59.875,819.8125,-435.875,0
-1.228192096,-1.042891868,-1.854367196,-1.856353615,1.297986457,-0.7528567711,0.4477505167,50.3125,824.25,-430.875,0
4.465963629,2.039005595,2.718860597,3.021569395,0.5862603047,1.306338178,-2.466976458,28.375,809.25,-456.125,0
-3.747653528,-1.550748367,-0.9744503702,-2.182868439,-2.039708933,-1.815943138,-0.07727753346,20.125,800.3125,-472.0625,0
2.511424295,1.528376524,2.270102256,2.838515136,2.053296813,1.721448105,2.697507847,17.6875,807.4375,-463,0
-3.160885789,-2.874412531,-5.549363104,-3.274370955,-3.532335685,-1.82078088,-4.958144923,17.4375,808.4375,-459.5625,0
1.065057652,2.035909612,3.684731095,1.082661994,2.187537711,0.9867960518,0.852798777,10.9375,804.4375,-467.5625,2
0.2945954338,0.9647296902,-0.3756842337,0.05189717019,0.6611158921,-1.010280422,5.065107581,14.5,803.25,-471.625,2
-0.6290444469,-0.1619889076,0.3261068165,0.9555304645,0.9557937853,2.728267896,-1.111140379,21.5625,809,-454.5,2
1.045015655,-1.081595039,0.8829936732,0.2182757599,-2.031010832,-0.2968782644,-1.388514848,20.25,818.9375,-444.125,2
1.167541404,1.058584827,0.7666614043,0.9027678401,2.519642241,-0.4352841466,-0.8832036564,21.375,813.625,-450.8125,2
-2.628218495,-2.189424622,-2.825187193,-3.916593195,-3.335144256,-1.32536326,-1.029276692,22.1875,807.375,-460.375,2
3.392114748,3.036476594,1.961496338,5.05312339,1.850456997,2.76135974,7.775152732,28.875,812.5625,-453.8125,2
-1.662881987,-1.569530397,-0.362864873,-3.392029466,-0.5337751965,-3.879331431,-8.441851192,30.5,813.0625,-449.625,2
1.369462857,1.331421414,0.4843022027,2.210472772,0.9796073007,3.708831726,6.480611983,30.4375,807.5,-464.3125,2
-3.101130911,-1.922454623,-3.009003234,-2.272397629,-1.085808709,-4.382569312,-6.041851269,24,809.875,-456.1875,2
0.4907008059,-1.260599827,2.757659489,0.9208118542,-1.405226205,3.854575422,2.482803511,19.75,822.5,-436.625,2
0.3873345359,1.621370793,-1.424944538,-1.033338966,1.751539961,-1.080392308,-0.5981113685,22.3125,811.3125,-456.1875,2
0.9305314661,-1.009612605,0.3703250258,1.356771657,-1.129418257,0.6580442128,0.802878895,28.75,799.9375,-474.375,2
-3.678885744,-1.046877726,-1.849565077,-2.865084056,0.1911646149,-3.270638695,-5.32166703,34.5,810.9375,-452.0625,2
1.722558453,-0.2474481593,2.08698545,1.896824368,-1.479864634,2.419522778,6.701384737,29.375,817.375,-442.4375,2
1.632037418,3.716968864,0.4350256309,1.377545593,3.36034903,0.03318689186,-2.982446892,43.9375,794.25,-479.8125,2
0.270804229,-1.57038863,0.4594095757,-0.2873280539,-0.5787613301,0.7308462202,1.403408889,33.5,799.4375,-472.5,2
1.713870936,1.512963386,-0.9192097102,-0.3821028209,-0.7960854179,-1.717716432,-1.283026373,20,816.375,-445,2
-1.635927823,0.285406457,1.364903361,1.708079987,2.779350036,3.327197299,2.316238553,31.4375,813.0625,-449.1875,2
-1.79876794,-2.037431342,-3.257049579,-3.470478091,-3.810074977,-3.554568501,-0.5249461817,41.375,811.375,-459.5625,1
0.6347006991,-0.5069811184,1.572924313,0.8712999866,0.2680275118,0.408554604,-1.458563002,30.6875,813.25,-450.0625,1
1.720063656,2.04010752,0.9352757702,1.543807982,1.481674671,1.85293508,1.05962889,22.5,804.25,-467.6875,1
-0.943580898,-1.329976077,-0.5531326474,-0.972335919,0.1903351273,-1.192465652,-0.8012024164,28.75,802,-469.375,1
1.41448026,1.212976728,0.9299342144,1.000499922,-0.4246855872,0.459959895,2.224423933,28.8125,794.125,-480.9375,1
-3.172711081,-2.085990834,-1.377387072,-1.168492612,-0.8384209777,-0.4780658437,-2.546012235,24.5625,791.875,-485,1
1.720000233,0.9943568888,1.04014424,0.1598289039,0.4948174663,1.237918264,0.4106707557,31.25,792.1875,-485.375,1
2.788628768,2.698663981,0.7544813129,1.664483399,1.439583539,-0.2182174589,0.2146088115,24.25,795.5625,-479.6875,1
-4.022248378,-3.021079132,-1.481709628,-2.158363575,-2.183551777,-2.993466194,1.048820471,29.8125,796.375,-477,1
2.980958137,1.440933928,0.8611584243,1.65724989,1.549123817,3.788035221,-1.964230747,26.625,792.3125,-484.375,1
-3.457651455,-1.999362213,-1.356835719,-1.673642042,-1.427099775,-3.653961217,-1.971231222,29.3125,788.625,-488.5,1
1.725273602,1.672189235,0.3833288925,1.268847243,0.8717092228,2.648639756,5.564093191,26.9375,789.875,-487,1
1.285392161,-0.3225964629,2.042031089,-0.2119292604,0.5644917574,-0.4353226553,-3.107119047,29.5625,793.375,-483,1
-2.959342791,-1.487615288,-3.811452719,-1.717761163,-3.176462792,-1.60822784,-1.13727946,28.25,788.5625,-488,1
1.9862959,2.000128872,2.012860869,1.617576338,3.724398499,1.388612535,2.879630615,27.5,787.0625,-489.625,1
-2.288837236,-1.395855154,-0.8917586889,-1.12383692,-1.876307988,-1.237653443,-2.944025714,24.8125,790.0625,-486.4375,1
2.242215242,0.8222616422,1.475764744,1.625007814,1.218921525,0.6050122873,1.246821783,28.6875,792.625,-482.8125,1
-0.4573493912,-0.6493981811,-0.6653351712,-1.339423603,-1.822465307,-0.8107835469,1.111032633,27.875,785.6875,-490.4375,1
-1.129010353,0.5629855884,-2.018391151,-1.056517507,0.4857235735,0.1061993944,-1.115451043,25.5625,782.6875,-494.625,1
1.279678785,0.07564111941,3.155697112,2.602669015,1.522733,1.369109789,-0.1664376357,20.875,786.5625,-490.5625,1
-0.2243414679,-1.759287231,-1.345015873,-2.323146148,-2.942180307,-0.7398371244,0.1585796806,22.0625,790.25,-487.3125,1
-1.050925591,1.399606938,-0.6030379092,1.061723691,2.443869201,0.498940993,-0.2616882883,21.875,789.0625,-489.3125,1
1.724312004,0.04986013497,2.016275284,0.5023873915,-0.2433095766,0.2946654374,-0.4682554657,21.3125,787.875,-487.5,1
-2.488830809,-0.6124271315,-2.848712511,-0.7413634895,-0.580602952,-1.449850835,4.566378593,25.875,794.25,-482.4375,1
3.682104021,1.82725041,1.748040368,1.030124666,0.6973143968,1.278350861,-4.447509741,23.1875,796.25,-482.875,1
-1.964173414,-3.152747674,0.06473386493,-1.221501425,-0.6473807925,0.9717278373,0.3543868871,25.4375,801.9375,-470.5,1
-1.659625432,0.7001029316,-2.778228377,-0.8011005001,-0.8620861143,-0.8826450693,3.903729453,21.3125,794.875,-480.375,1
3.255664211,2.012312778,3.161463091,2.899072682,1.451723872,-2.134839901,-6.33670982,27.5625,797.3125,-476.5,2
0.2794776669,3.367328628,1.811895254,0.3720315652,2.249292528,3.970941144,4.951144004,24.125,799.8125,-472.3125,2
-2.463133958,-7.207833908,-3.825420711,-1.640417142,-4.078951422,-2.41293843,-3.38520013,15.9375,805.625,-464.8125,2
1.81756874,5.17834794,1.90336332,-0.1140268131,1.735477145,0.6904736778,3.132349026,12.5,794.8125,-480.8125,2
-1.525386032,-3.05778347,-0.1027346317,0.1921508892,0.8052799104,-0.5471922587,-2.797331542,14.75,800.6875,-471.875,2
0.5779524176,2.962554262,1.124346099,0.1736317253,-0.1314063762,2.299823843,3.400430869,14.375,801.75,-470.25,2
-3.56562174,-7.302346905,-4.631137596,-3.434290802,-4.790174414,-3.849426245,-3.987943088,17.625,806.5,-461.4375,2
6.903467143,7.936622637,6.384239423,6.176192025,6.879031504,4.35222931,4.287748342,17.875,804,-466.875,2
-3.211521567,-2.853580982,-3.073858133,-3.350783758,-3.472800037,-2.913714048,-3.907521215,14.625,795.3125,-480.0625,2
0.6181806563,0.7586483989,0.3387643921,-0.2324150865,1.099399087,0.6043638383,-0.5741446376,13.8125,791.25,-486.5625,2
2.282941724,2.218797651,1.5721038,2.353273232,0.008869110944,0.7738731633,5.331716396,11,800.25,-472.5625,2
-2.929777378,-1.299127322,-2.190395798,-1.580544914,0.7235902192,-0.01182081403,-4.565597291,16.875,782.125,-495.6875,2
-0.2812644859,-2.17529266,-0.05123322532,-0.7140561777,-2.138323135,-1.484871017,-0.9742048466,21.625,786.8125,-489.6875,2
1.003310568,3.131907239,0.9065871015,1.643453905,3.776021761,0.875087713,4.742912078,18.9375,786.0625,-493.375,1
-5.482770556,-7.735668338,-4.877732575,-5.843013239,-9.053876747,-4.314819936,-8.559250437,22.0625,795.4375,-481.125,1
6.681494141,8.400477349,6.497128394,6.973355594,9.032811574,5.430499065,9.609228444,28.5625,794.25,-480.625,1
-1.098516746,-2.596622409,-1.502206505,-1.914328684,-2.107407295,-0.7946679164,-4.992801915,22.25,784.125,-493.6875,1
-0.552188113,0.100418993,-0.7898187528,0.03755996606,-0.7297080876,-0.06274174358,3.03186699,25.9375,785.75,-492.125,1
-3.655496203,-3.487697281,-1.840868179,-3.210571168,-2.07625173,-2.515764474,-4.763434716,21.9375,791.9375,-483.6875,1
3.940144056,3.950709032,3.064770562,4.595854202,3.099045579,3.026163783,3.654188422,25.1875,794.1875,-481.5,1
-0.178540208,-1.572480902,-1.155829518,-2.215381492,-1.086709118,-1.390171683,1.385340076,30.375,790.3125,-485.9375,1
-1.898664648,0.4767857127,-0.600786746,-0.7440983127,-0.9167774885,-0.2824911385,-3.251268138,27.9375,788.5625,-489.5,1
2.708762875,1.022508784,0.5218665053,1.646321143,1.475776225,0.7784586766,1.464955693,23.4375,789.0625,-487.0625,1
-1.156502262,-0.7124550046,-0.5320628559,-1.013715437,-0.5704532094,0.1636200147,1.132881033,24.6875,794.125,-481.875,1
0.2183586426,0.6937522917,1.955096907,1.533546253,1.709649187,0.3824847417,0.1582231178,32.5625,796.6875,-476.5,1
0.7807086979,-1.176618818,-0.5712993564,-1.397344813,-2.073544288,-1.731144628,-0.3301949763,31.75,795.625,-480.5625,1
-2.034099581,-0.1830690696,-0.8737109313,0.5205122175,0.8038116288,1.219762571,-2.078027305,32.375,798.5625,-474.25,1
0.5818852831,1.959115831,-1.185960898,-0.996520391,-1.307738797,-0.8155269723,-0.5391504718,31.25,799,-474.1875,1
1.231739934,-0.5767812679,3.705902627,3.038992611,3.218019872,3.157757698,5.537912238,36.1875,795.75,-477.75,0
-1.852941641,-2.71174111,-4.073774823,-4.094655711,-3.927412099,-5.568064299,-6.654836764,35.9375,790.1875,-486.9375,0
1.369083946,2.412865207,1.803520733,1.48409486,1.928054188,4.514395146,1.045977243,32.5625,793.0625,-481.3125,0
1.002255764,0.1988099823,0.7384345251,0.6675393966,0.5891490021,-2.140982139,4.539271835,41.9375,793.5625,-480.3125,0
-3.508820338,-1.700023907,-2.211960166,-0.4593941509,-1.315544264,0.6336409943,-4.273941443,33,791.5625,-482.75,0
1.815581471,0.8020321946,1.447643574,-0.149645122,0.5168190994,-1.404915045,0.2623024836,41.125,785.125,-489.3125,0
3.825788462,2.370780307,0.8341826749,0.7824787465,0.6671168135,1.92265768,1.086822965,36.5,779.9375,-496.75,0
-2.167480991,-1.0471848,0.8411244155,1.061526236,0.3758558448,-0.4100275142,1.897510005,47.0625,787.1875,-486.9375,0
-0.8137879606,-1.272020176,-1.689690118,-1.595954523,-0.8552319591,-0.2819455798,-3.802658723,37.875,791.1875,-484.0625,0
-0.7093885426,0.7257120162,-0.1817325329,-0.8815966218,-0.8183447656,0.4068059047,-0.1263603926,32.8125,783.5625,-491.4375,0
0.5854827701,-0.1396617945,0.9475181521,2.213222095,1.228035169,0.5483229471,3.415672813,38.875,781.25,-494,0
-1.426618298,-0.1983451258,-2.31665787,-2.297002498,-1.673602103,-2.223872796,0.1442858347,55.5625,788.875,-483.75,0
2.373056228,0.809609837,3.374328268,3.149803421,2.058363261,3.56222367,2.248924897,41.625,788.9375,-487.625,0
-3.237179463,-3.128935079,-3.664580859,-5.039123105,-2.321706885,-4.517583992,-6.287250315,55.125,780.6875,-493.6875,0
0.9471269448,0.5330677643,1.792103309,3.147618584,1.156602358,2.180606138,2.482934498,52.375,785.5,-489.25,0
4.147108498,5.568762542,2.250533577,2.702421111,2.897604517,1.982666123,1.535965064,64.75,795.875,-474.625,0
-4.104432574,-4.965729041,-4.205950791,-3.877006394,-3.37081448,-3.900627821,-4.050585671,35.0625,791.1875,-483.125,0
1.667017655,1.75466541,2.853543585,1.744983879,1.412504523,3.310587029,0.9824988321,32.4375,785.8125,-491.4375,0
0.2067548579,-0.5737954468,-0.7983864219,-0.5269716255,-0.02808575981,-1.995603965,-0.07524848902,36.0625,787.875,-488.9375,0
-1.528722098,-0.06866535845,-0.759603751,-0.5926936255,-1.275365024,-0.3195576065,8.069011907,50.6875,791.6875,-482.625,0
-0.4488886774,-1.638311217,-0.518434093,-0.4074249724,-0.148600331,0.990066136,-10.76356556,19.875,792.9375,-479.25,0
0.1923466691,0.5213870243,1.719797303,-0.2023182797,1.240867139,0.2110025708,5.239840622,15.5625,790.4375,-486.8125,0
0.9205874628,1.021799888,-1.777116019,-0.2183325578,-1.366663426,-1.83236475,-7.917288696,31.3125,779.875,-497.625,0
0.6446059402,1.036116734,0.7156989776,1.581371495,0.9698199873,1.483890623,23.77522218,61.75,789.9375,-480.125,0
-0.1288892088,-1.028372689,1.592993276,-0.2559272537,0.03692335054,-1.393118664,-26.24690486,44.75,783.8125,-491.1875,0
0.5165089995,0.807618446,-0.6008012714,0.8890691456,0.919403314,2.043240439,10.37588941,24.8125,790.0625,-486.875,0
-1.824661987,-1.401552388,-0.8422632459,-1.614161219,-1.067385322,-0.6179796229,-0.6211689641,7.5,780.1875,-498.5625,0
4.04443426,2.693872308,2.963757893,2.738299724,1.773367528,2.078003831,5.940447206,20.4375,793.625,-481.875,1
-2.242245072,-1.225220086,-2.459310195,-2.281160929,-2.096605274,-3.173640023,-8.971631885,7.5625,794.8125,-480.625,1
-1.105546521,-0.8699982456,-0.517654792,0.1494939149,0.678572071,1.262814032,2.350854493,1.5625,789.8125,-487.5,1
-1.008068948,-0.6441105478,-0.1148597661,-1.37081304,-1.807453401,-0.8301125931,-1.159073603,0.8125,788.6875,-489.5,1
0.833619894,-0.6120674198,1.291845999,2.425816153,2.283121242,2.316779687,2.843165439,8.75,786.75,-493.375,1
-0.3209932775,0.9653374509,-2.940278445,-3.072308507,-2.177819132,-4.469557368,-3.523144182,8.875,789.5,-490,1
1.753158263,2.04303955,3.58156037,3.677820553,2.006853521,5.230003082,1.754715713,12.25,782.3125,-497.25,1
0.8327402561,-0.2156450885,-1.062111817,-1.119633846,0.3102671817,-2.625507039,-0.2445714544,6.0625,782.375,-497.9375,1
-3.659540406,-2.969626261,-2.153535989,-1.848393198,-2.472255702,-0.007322905743,-1.547559103,11,778.5625,-499,1
0.05851383105,-0.3626709049,1.350450479,0.2057498945,0.5292077932,-0.9456187125,0.8616773275,14.3125,779.1875,-500.1875,1
1.558410652,1.122953371,0.1802830748,0.9492505677,0.7142351297,1.522928577,1.216243591,12,774.4375,-502.875,1
1.565283223,1.528496911,1.322837609,1.371745602,1.598542244,0.695528777,-0.6741589092,8.5625,774.375,-504.3125,1
-2.003068428,-0.8755423464,-1.808470128,-1.323017476,-1.438590965,-0.9314353262,2.243091962,8.1875,773.125,-504.6875,1
0.9829373145,-1.44697842,0.2225220296,0.3337742366,0.3461501951,-0.01224354674,-0.7121696059,13.625,772.4375,-504.625,1
-0.7582901223,2.14691296,0.3711315714,-0.5752572465,0.1618299753,-0.6902752764,0.8711456043,13.5,760.9375,-520.625,1
0.7866234013,-0.9573533015,-0.2811757755,0.2460168049,-0.1076989467,0.7539410831,-3.255940183,12.6875,762.9375,-519.875,1
-0.9994932646,0.07074206914,-0.3933113315,0.2406310483,-1.249676714,0.5267087411,1.831670285,14.875,765.3125,-515.5,1
-0.7185890591,-1.552934215,-1.050140914,-2.336935733,-0.7549492997,-2.312303625,-2.561937218,13.75,766.625,-513.4375,1
0.5462448289,1.68794231,1.451590346,1.667915651,1.447075313,1.645244188,4.631716255,12.3125,765.6875,-514.25,1
3.578598712,2.422117612,1.769326042,2.374759784,2.310224921,1.053469059,-2.985323719,12.1875,762.3125,-517.5,1
-4.953838054,-4.331176148,-2.539707459,-3.500228517,-2.807140734,-2.22978453,1.401150893,5.75,753,-533.1875,1
2.654113242,4.501195476,2.33773256,2.498838851,0.8983614218,2.096975452,0.03861075421,6.9375,753.8125,-532.625,1
0.2627232288,-2.688542843,-1.350703681,-0.7291178638,0.3424454895,-0.3308345138,0.6537261279,4.3125,757,-525.5,1
-1.042710316,1.047976992,0.7212778491,-0.06881384418,-0.3539704977,-1.200802186,-2.911974977,7.0625,757.5625,-526.9375,1
0.3804853199,-1.099391379,-1.313888753,0.1680050649,0.2899091784,0.3741539277,3.391324702,11,753.0625,-532.8125,1
-0.9973459818,-0.2489793636,0.6998786052,-1.234833389,-1.27420761,-0.463895443,-3.305443567,11,754.125,-531.375,1
0.9920302824,1.021263051,-0.6708372749,1.249397751,1.265309114,0.8831893163,1.946478485,8.8125,759.375,-523.125,1
0.3425328503,-1.470712173,1.69339621,0.1909250559,-0.1238651733,1.260563214,0.5795746552,11.8125,760.25,-522.75,1
-0.7359073221,1.618061281,-1.373843272,-0.1411615502,0.5450172428,-1.554477331,-0.3423994935,10.75,758.25,-527.1875,1
0.05535536179,-1.64354785,-0.2923367349,-1.376890796,-1.254412506,0.1686318771,-2.887174737,13.5,755.5,-529.3125,2
-1.004659678,0.8540966811,0.5745614134,0.2217921006,0.00506765006,-0.1223490553,1.034591535,8.3125,757.4375,-528.0625,2
2.022874469,0.4813830893,0.9365709245,2.127262524,1.854497399,1.791104861,3.718144973,13.375,761.0625,-519,2
-0.9923289357,-2.247400408,-0.8636238747,-1.264593155,-1.962138569,-1.122588834,-3.399370458,30.3125,760,-520.875,2
2.501959654,3.574826533,3.164989351,2.682820044,2.953169756,2.378234904,1.813690439,32.25,754.75,-530.125,2
-2.415336076,-1.528803676,-3.531208879,-2.840645773,-2.437916503,-3.080124547,-0.5366327616,27.875,764.25,-517.25,2
4.257318143,3.882838031,2.828866764,2.081787532,2.471144866,0.6538102907,-0.603886957,26.8125,764.5,-516.125,2
-3.570455287,-3.43743231,-1.773316429,-0.6702791953,-1.023910831,0.8481075241,2.270564233,7.0625,766.125,-515,2
-2.235964791,-2.1055489,-2.497493898,-3.170370854,-4.292679373,-3.128410561,-7.424617175,12,763.875,-517.3125,2
3.464615092,3.698785484,4.346269934,4.081826584,5.564316041,3.939428322,8.868761815,14.375,762.625,-517.125,2
-1.15285188,-1.686407773,-2.476425655,-2.340267927,-1.929394196,-2.431272541,-4.791471683,18.5,761.1875,-520.875,2
1.964610887,3.004834889,3.782743989,3.680692756,1.700425065,3.709317732,4.171125112,9.5,768,-512.375,2
-6.976636575,-8.503278323,-8.303349142,-7.980524723,-6.881475496,-7.517019986,-6.878204916,6.5,769.75,-509.4375,2
5.138539728,6.883799396,4.747718945,4.735573099,4.574731208,5.135405698,4.466024667,30.625,759.75,-523.4375,2
0.1302489725,-1.153237545,0.9828805369,0.5803590576,1.032203788,0.2518871577,-2.098160579,28.4375,746.125,-543.5,2
-2.431081972,-1.479068001,-2.052246683,-1.823860695,-2.521426563,-2.970383661,4.880463603,30.125,744.8125,-545.75,2
1.753566739,0.7806707339,0.7847769656,0.5898987834,0.8732795202,0.7568941726,-7.011515647,18,744.25,-548.9375,2
2.679560994,2.328139387,1.582089131,2.953515579,2.902997059,3.415659145,10.9921782,14.5625,744.75,-546.6875,2
-2.680143397,-0.5816159057,-0.9631420024,-1.503041234,-2.114509216,-2.483751563,-8.685975134,33.25,744.9375,-543.875,2
-1.395616938,-3.296404213,-1.20972796,-2.661093213,-1.006794003,-0.08399391493,0.4917341329,18.6875,749.1875,-542,0
1.88764602,2.419855021,1.453644957,2.203387077,1.062161425,-0.2870911644,1.215647044,14.1875,743.9375,-547.125,0
-1.168927017,-1.301708965,-0.7202131071,-0.4705098662,-0.4098271317,1.717081418,2.617393456,5.9375,756.0625,-530.25,0
-0.6770957348,-0.2072347052,-0.8778656039,-1.027475367,-0.4621513535,-0.7742102926,-2.478921747,14.25,751.125,-537.5625,0
2.395306571,2.68919967,2.204062025,3.185958149,2.072668762,0.2289220376,2.7634091,19,753.0625,-534.75,0
-1.476253382,-3.184543011,-1.688587672,-2.716832229,-2.009506975,-0.6374738391,-5.109152181,17.5625,752.1875,-533.125,0
0.09644600303,0.8238549103,0.2400254192,0.2857797458,0.3024372666,-0.8718761119,4.356909645,21.125,751.5,-535.25,0
-1.414748841,0.07996352453,-2.618587631,-1.126114341,-1.64403379,-0.7957534307,-6.921451056,32.0625,756.5625,-527.6875,0
2.18394218,0.541061187,4.813960064,2.666429998,3.515704576,3.477481324,6.673304399,38.625,750.625,-536.125,0
-0.9980284656,-0.9337067819,-3.257110066,-1.585102298,-1.949216339,-2.658531503,-2.534850649,29.6875,744,-547.0625,0
-1.38187043,-0.6586152538,2.081125588,-0.4700299279,-0.2686631919,1.694989445,-1.309814672,31.3125,748.5,-541.25,0
1.375595353,-0.2919980808,-2.095227223,-0.2325166392,-0.6680913993,-1.187076986,4.736693008,41.25,749.5625,-537.75,0
-0.9987371811,0.9885561667,-0.4347817445,0.06129762088,-0.04340753119,-0.4006436663,-5.577536415,60,752.625,-529.3125,0
3.589516274,2.949758485,4.258959733,2.83594259,3.075322676,2.786002063,6.309342741,46.8125,758.0625,-519.6875,0
-2.991522563,-1.968699031,-3.768593728,-3.851719181,-3.353277643,-2.829234126,-6.93796774,37.0625,760.625,-521.9375,0
1.536108955,-0.2724111264,2.396615436,2.772547705,1.632242513,0.3313968314,5.174337694,39.25,757.625,-523.75,0
-2.726610322,-0.5268089239,-2.364518378,-0.335913764,0.1176966317,2.12294782,-1.712647529,36.5625,763.9375,-513.625,0
2.7381197,0.03269218632,2.085317294,-0.980285019,-0.9054282278,-1.825416378,-0.1848002814,15.6875,754.5,-529.0625,0
-1.226310373,-2.373964273,-1.61006409,-1.143148458,0.3974541932,-0.003109350985,-0.8777553091,20.875,753.1875,-534.9375,0
-0.7321835974,3.638237757,0.525155501,1.93662408,-0.2211697292,0.1357649913,1.667937272,9.625,747.125,-543.4375,0
3.291722671,1.171641695,1.641336753,1.763597014,2.182884005,2.014903811,2.693361551,28.9375,758.3125,-523.1875,2
-3.008544636,-3.283415932,-2.344016873,-2.814977808,-3.010955634,-3.392779862,-5.406196131,9.25,753.5,-537,2
1.73811724,2.072947472,0.8397836319,0.6685718325,2.725263547,1.963429314,0.3020169928,8.125,758.5625,-527.25,2
-2.032755966,-1.099395408,0.4618914179,-0.3478719487,-1.718903364,-1.048201989,2.861238519,21.6875,746.625,-544.125,2
1.127838892,0.502061065,-1.800353112,-0.06465037026,1.473145902,-0.9974157403,-3.117481238,18.125,749.5625,-540,2
-1.798804377,-3.215665731,0.447362106,-0.623310993,-4.24180298,1.59110684,0.7429704881,19.625,756.875,-525.0625,2
3.11537668,4.90660592,1.944609811,1.231050238,5.213156137,1.0222136,2.113601914,38.0625,739.3125,-555.1875,2
-2.70674275,-3.895451435,-3.04956591,-1.663995808,-3.965761735,-2.407967069,-5.781033304,30.5625,750.125,-538.0625,2
2.534583239,2.289395007,2.620290729,1.360439741,2.609248162,0.9121307795,7.645334403,26.5,755,-527.9375,2
-2.254565587,-0.9689665003,-1.291781122,0.5332043198,-1.246763538,0.6341885379,-3.06764691,36.3125,759.1875,-520.6875,2
0.5143737184,0.0954036466,0.06469446427,-1.086014799,0.1290807531,-0.8884489892,-1.256364891,25.9375,752.9375,-533.3125,2
2.254233735,2.463349746,2.393978324,2.608843351,2.138352838,2.231416076,3.601085346,16.0625,753.8125,-532.375,2
-1.824362783,-2.513361827,-2.861525776,-3.094903948,-1.92069353,-2.888854491,-4.54978611,16.4375,755.5625,-527.9375,2
2.399447095,2.298996609,2.654244903,3.340934158,1.342134774,3.699353976,6.492988057,20.5625,765.625,-517.25,2
-2.965480576,-3.249238326,-2.466368539,-3.318556368,-2.172982539,-2.720714573,-6.511905276,32,761.8125,-519.75,2
1.253682956,2.451071406,0.455206982,1.552647349,1.298148271,-0.4190871762,1.51975369,18.625,759.375,-525.4375,2
-0.97945614,-0.5610307438,0.8765727805,-0.1844244909,0.8968216447,0.534546512,1.480949989,17.875,757.9375,-522.1875,2
0.0510344515,-0.0763919512,-1.959210456,-0.868033289,-1.681515166,-0.9882987132,-1.330954705,15.0625,764.4375,-515.875,2
0.1641624087,-2.45901809,1.542774838,0.5687218015,-0.3913878694,1.992703724,0.946477848,25.0625,779.9375,-495.5,2
-0.3566047827,3.104909536,0.7097281144,0.8628904504,1.547155498,-1.635225617,0.08361056555,32.9375,753,-533.5625,2
3.036654747,0.2112561011,1.108608623,0.01456030915,-0.004338167594,2.451874763,-1.689889279,28.125,760,-522.25,2
-3.768245794,-2.153265288,-2.276951623,-0.9278013096,-0.6448124259,-0.9851266045,-0.2335387635,22.6875,759.875,-524.9375,2
3.694451145,2.725092496,0.397824928,0.3082856141,-0.06717907875,-2.775393654,10.29603278,18.0625,772,-504,2
-1.8252306,-2.062928852,0.7986462315,-0.1227940839,-0.1909077391,2.71192466,-16.90034249,32.6875,752,-532.375,2
0.9933206412,3.805406198,1.252624759,2.059227238,3.39352144,1.252617352,12.74582492,29.5,758,-527.25,2
-5.58053578,-7.625272497,-5.310001816,-4.493918686,-5.81100243,-4.011254467,-6.260880235,19.75,760.9375,-520.9375,2
2.665214994,1.740546078,2.018013917,0.7735084801,1.101601445,1.815488262,3.558047237,14.25,773.875,-506.4375,2
0.8142860095,3.120396839,0.9127772682,2.055720543,2.148328611,0.4606848571,-1.857512908,20.25,774.5625,-503.125,2
-0.6231316381,-1.343599436,-0.292730414,-1.088308483,-0.9336725234,-0.9300586746,-3.372814413,18.8125,751.6875,-538,2
-0.5327634383,-0.5410708063,-0.1817259351,0.009236682588,0.4129794719,0.2754892382,3.089812312,20.4375,756.25,-528.9375,2
2.522209114,2.633335426,2.693798653,1.754514424,0.8876603698,2.995433742,3.548444595,11.1875,767.375,-514.3125,1
-4.037297666,-4.708363063,-5.874853075,-4.697661655,-4.959839492,-6.117015676,-5.600982334,26.375,769.25,-507.8125,1
6.246354801,6.856668058,6.636131755,6.750994686,7.121574496,6.079652331,1.916183969,24.5625,756.6875,-530.5625,1
-3.154657643,-4.395292042,-3.251015486,-4.224926595,-4.243198867,-3.420218567,2.684646007,28.9375,756.6875,-526.1875,2
-0.7436417815,0.2890790592,0.366582402,1.230614572,0.5491935701,-0.03609784167,-3.395260118,40.8125,759.75,-520.25,2
0.3411905202,-0.3961171497,0.1520508419,0.5228298862,0.9515790641,2.834907172,3.152944927,36.8125,764.875,-514.25,2
-2.571542303,-1.599285009,-2.609414854,-3.890509802,-5.176132169,-6.254393264,-4.743296373,26.3125,772.4375,-502.875,2
7.490543743,6.675060294,5.758218134,6.076498134,8.508424178,7.4441246,3.019830827,34.6875,762.125,-519.5,2
-5.036724088,-3.980888558,-3.11987755,-1.81899075,-3.405195664,-2.608730617,2.655999408,39.25,758.1875,-523.125,2
1.531476564,-0.260301939,-0.2485328108,-1.464086156,-0.2027740255,-0.3781059511,-3.57177597,37,762.1875,-516.9375,2
-1.259772466,-0.7388140065,-0.09891238966,0.0228745048,-1.58533713,-0.6896779476,3.428546583,33.25,771.6875,-505.5,2
1.619511995,1.618772894,1.34885838,1.915670226,2.865561271,1.941831968,-3.224236529,31,764.625,-515.75,2
-2.577704291,-0.7431329578,-1.140803373,-2.36843669,-1.583161114,-1.845467372,1.54002584,38.375,762.9375,-519.1875,2
6.790943968,4.91588109,2.968523325,4.022868669,3.224563657,1.561602748,1.316154708,28.3125,768.6875,-510.5625,2
-10.81421396,-11.15146808,-6.876567082,-8.08340917,-8.669114509,-4.079454275,-6.240831334,30.5625,772.25,-504.8125,2
9.135576188,9.417680715,7.301882497,8.682843748,9.764033335,5.896988452,5.519808922,16.375,753.6875,-534.3125,2
-3.550045251,-2.703279287,-3.088318835,-3.901981007,-4.644513921,-2.809476361,-2.417441018,7.6875,752.9375,-532.6875,2
-0.3885056616,-0.01900757585,-0.002093893152,0.1575322085,1.63116733,0.1019387221,4.611603913,11.4375,759.5,-525.3125,2
-5.83757248,-7.368864419,-5.136100428,-5.150193476,-8.080148067,-3.41242566,-8.993449743,17.0625,772.875,-503.3125,1
8.540906176,10.20125745,8.790577815,8.298287396,11.38566116,5.860475314,5.036985533,25.0625,766.3125,-517.625,1
-3.995091443,-5.467353411,-4.767718353,-4.301157808,-5.628853745,-2.558196796,0.3227577569,41.6875,777.0625,-497.1875,1
1.577776572,2.673497017,1.034813931,1.872151895,1.579911427,-0.4482190214,-1.212279884,46.625,759.0625,-521.3125,1
-0.4311268264,-0.5536142721,-0.2996696537,-1.248943804,-0.994470752,0.8292901353,1.222872153,50.9375,756.9375,-521.3125,1
0.7570226454,0.4702790355,0.4959373313,0.4363125054,1.599775526,-0.5196812697,-0.5476447252,46.25,758.9375,-519.9375,1
-0.3876837704,-0.338142975,-0.8229378695,-0.3807088502,-1.542352335,-0.302796468,0.9845660002,43.625,761.0625,-517.9375,1
3.56614446,3.663402976,3.236530131,3.396756876,3.345180814,3.154276021,1.76416944,37.8125,767.9375,-509.875,1
-4.32402894,-5.079213238,-3.011719012,-3.907932499,-3.811642155,-3.573850883,-2.790633044,41.5,772.125,-504.5625,1
1.49725572,3.183529554,0.3205170323,1.953368392,1.979790112,1.167212175,0.5263650492,41.625,777.625,-498.1875,1
-1.203347321,-2.350018136,-0.6124990239,-1.2977701,-1.247557724,-0.5126718216,0.1111787254,36.25,780.5,-497.375,1
-2.413733705,-1.652127286,-0.4845684969,-1.10930092,-0.2602946695,-1.051723011,-2.047286575,35.5,791.6875,-483.25,1
4.393668256,3.628230272,1.260215793,1.806771154,0.8081773504,1.01656493,3.123589238,38.4375,789.75,-487.1875,1
-2.210489175,-2.336640548,-0.7352162225,-0.9874255691,-0.8722104759,-0.372475802,-2.46674139,42.8125,778.75,-496.0625,0
1.353209587,1.131376714,0.354744771,0.8512906529,0.4319104705,0.6005120755,0.2641594042,38,780.9375,-495.6875,0
0.3719169997,0.1040919319,1.648280603,0.2250778228,1.018214048,-0.7423385041,-0.1340171852,40,791,-486.25,0
-3.387716591,-1.918442003,-4.371420865,-1.272777476,-3.308768947,1.034223161,3.194302413,53.75,785.5,-485.5625,0
2.641579446,2.210296567,3.636148205,-0.007008329506,3.019230287,-1.020449032,-4.811671073,45.125,775.5,-500.1875,0
-2.464021887,-1.310136217,-2.136275672,1.376634628,-1.478749203,0.7091289022,0.3455766499,37,776.125,-501,0
3.490008781,2.807855284,2.913946477,-0.8228380868,2.618317073,-0.9419736651,4.74905119,33.375,783.5625,-493.0625,0
-5.196382018,-5.403768633,-5.921529693,-1.719303581,-5.285730756,-0.9712041278,-5.127685161,31.4375,786.375,-487.875,0
6.423270307,5.205296499,6.928693716,1.780689068,5.204454313,2.498973306,3.278683377,51.25,768,-515.5625,0
-5.364177482,-3.605673009,-5.884612105,-0.5097717712,-4.052632616,-1.859781079,-3.664224329,50.1875,802.25,-465.25,0
6.115320105,5.34997934,6.411439819,1.668441053,5.158989285,3.273885935,4.990835648,19,799,-476.8125,0
-8.826342898,-7.235916113,-9.279141801,-3.103438082,-6.369863895,-5.596493652,-4.008675892,41.125,804.875,-462.1875,0
5.749762391,1.806782321,7.106534915,0.9554667193,3.421812429,4.58201545,1.423759523,16.5,794.0625,-484.25,0
-3.353619942,2.277189049,-3.754334087,1.688793467,-0.1838628746,0.4048043689,2.163906998,32.6875,814,-442.4375,0
1.768963622,-1.593728254,4.252937237,-1.203961829,0.5388575771,-2.519316449,-2.264627113,4.5625,777.875,-505.375,0
0.9617896947,0.4893032236,-5.532706282,-1.373795323,-3.692950152,0.7571744335,0.31285523,21.6875,804,-462.5625,0
0.9074228729,0.743258535,7.216153057,3.559293797,6.057184706,1.328232609,-0.9498773337,4,793,-485.875,0
-4.244664463,-2.764624556,-7.747163125,-3.708796501,-6.781241966,-1.562129883,0.6546909408,1.625,794.8125,-477.125,0
5.477326832,3.096387889,7.351892096,3.017132398,7.731051877,1.781688853,-0.6984120156,0.8125,796.75,-478.1875,0
-3.874726582,-0.4884703176,-4.089158066,-0.216794876,-5.201853773,-0.4349598966,1.795625754,12,799.125,-470.6875,0
4.393210967,1.626326918,4.825481604,2.374993816,5.754951041,1.921737611,3.989900649,14.5,791.875,-484,2
-0.9675877571,0.8176366205,-3.142220764,-3.500124445,-2.706212645,-2.062064139,-6.801922983,14.875,793.1875,-481.625,2
-0.7992578012,-1.484616252,0.679431993,1.942378335,0.3710311125,0.6854402167,3.146967976,22.625,787.8125,-486.875,2
2.460076105,1.127550115,1.181788723,-0.5320093945,0.7147339669,1.022966346,5.174127767,35.0625,760.375,-525.625,2
-4.434194678,-3.870733946,-2.445942421,-0.1280156471,-3.838193412,-0.7699146621,-8.662660763,47.25,781.625,-493.0625,2
1.778548843,2.743751623,0.7014764421,-1.281672414,3.417274204,-2.359697928,6.494517888,52.3125,777,-498.3125,2
-2.235831902,-3.366154126,-1.828177156,-0.5287817699,-5.418363309,0.2682027939,-5.514960205,45.1875,773.9375,-502.75,2
4.121264674,4.021908562,1.960443571,0.4782368326,5.022225292,-0.1621765138,4.660045665,42.25,774.6875,-500.875,2
-3.460376435,-3.609844446,-0.9227290382,0.7989526744,-5.228752835,2.139437396,-4.25162222,33.5,775.8125,-501.5,2
2.478542915,1.998218469,1.521977617,0.1376003513,5.889702445,-1.33880312,3.263284867,44.1875,761,-523.9375,2
-0.7221100875,0.211691882,-0.6265630659,-0.08394397488,-5.889569783,1.384031384,-1.074142972,34.6875,772.9375,-500.375,2
1.313976103,1.56520736,0.4318229913,0.5768163998,6.80083363,-2.08765834,-3.033735274,26.25,743.625,-554,2
-7.971717595,-9.024324246,-6.333895636,-5.630337875,-11.67671102,-4.463864411,-3.299560743,30.875,787.9375,-482.0625,2
7.983189547,10.32973781,7.286870555,6.022784058,12.58530984,7.038433888,9.786965533,13.4375,775.75,-508.125,2
-3.266410634,-5.24045437,-3.696611048,-3.151687603,-9.260028315,-2.6944493,-5.715176195,19.9375,785.9375,-490.0625,2
3.910223554,2.822086798,3.478629309,3.453644992,8.463105078,1.380672432,2.589311364,32.8125,770.625,-511.3125,2
1.332635527,2.730995321,1.062085979,1.406619579,-3.836181935,2.903430271,1.891383993,42.25,805.625,-452.875,2
-5.961924943,-5.876645479,-5.477712972,-5.702881486,-0.503038734,-6.503918374,-5.46507936,38.5,766.0625,-521.5625,2
1.880105039,2.148768903,3.132480362,3.437342047,-1.523097277,4.347576321,2.828178865,30.625,788.125,-485.5,2
2.777538779,1.519785404,1.089555126,-0.2850365986,4.617893938,0.1261272929,0.9307548768,26.375,782.3125,-495.8125,2
-2.576175415,-2.091868704,-0.4715563813,0.3082240754,-5.632224878,-0.8746472395,-0.8515588113,40.0625,799.875,-463.6875,2
-2.142757268,-1.730765336,-2.677416723,-3.847754648,2.263948431,-2.790806636,-2.855675885,63.875,771.875,-509,2
7.295902135,4.746125899,4.944356232,6.642505427,-0.492306337,5.389516615,4.291964394,45.4375,823.6875,-424.3125,2
-8.460747899,-4.836545977,-5.954415307,-5.873671798,1.439249639,-6.9528876,-5.227872883,42.375,789.1875,-487.4375,2
6.113121162,3.228531096,4.642979038,3.952499876,-1.509065027,6.503216191,5.270954229,50.1875,777.9375,-495.5625,1
-2.693165938,-0.7077695431,-1.603872603,-1.464306763,4.910570697,-4.373748883,-3.337299313,51,769.5625,-508.4375,1
-0.9692677166,-1.353759753,-1.234199908,-1.382595599,-5.138154003,1.584594528,2.20640349,47.9375,783.1875,-491,1
1.52040414,1.260308323,2.007565875,1.827762552,2.810177233,-0.9244839247,-0.8053925368,53.5625,778.0625,-497.8125,1
-1.41004184,0.1989458798,-1.749265521,-1.435452755,-0.7549195166,1.19730811,1.220714074,45.0625,773.875,-502.1875,1
1.057308174,-1.052201318,0.9798952668,0.9145754942,-0.4082323061,-1.118823094,-2.976270902,41.6875,756.8125,-524.25,1
-0.2317252734,0.1853603322,-0.3311836137,-0.5251840826,-0.3759977366,1.319498737,4.07749724,40.75,762.5625,-517.75,1
1.5272879,3.101877353,0.6600353196,2.134912211,2.781294978,-0.0216589307,-2.850497368,49.625,784.3125,-492.25,1
2.096415354,-0.3035161168,1.466333626,0.5951023964,-0.1998942587,1.937105786,2.223069603,48.9375,784.8125,-490,1
-4.779501745,-2.906650637,-3.106364388,-3.189754486,-2.304198023,-4.119352201,-3.401969424,46.375,786.0625,-490.4375,1
2.377734329,0.6735889305,1.91788158,1.646796479,0.5429750126,3.169357471,0.3604557495,49.3125,789.625,-484.5,1
-1.768783563,0.09663283983,-2.741494108,-2.347712478,-0.6293329387,-2.074758981,3.566237956,53.0625,784.875,-489.25,1
1.05973509,-0.6341846714,2.364864846,2.631495466,1.528110848,1.462918824,-3.312124575,50.25,774.8125,-501.375,1
0.994785612,1.855114002,0.8596995307,-0.4926425114,-0.8869945522,0.9114903502,3.056137935,44.125,775.1875,-501.5,1
-2.131237475,-1.682677969,-1.988211998,-1.725095712,-0.3296629309,-1.555240777,-4.105310438,39.9375,779.5625,-498.875,1
0.09411567131,-0.3724489935,0.08393285251,0.7925145257,-0.1410740548,-1.626274621,0.9989484612,43.375,778.5625,-497.8125,1
0.7283876259,0.5914312302,-0.07491501685,0.6198585012,0.3048496244,1.246866267,-1.448072932,41.8125,776.6875,-499.9375,1
-0.7014554176,0.7319573716,0.1063819687,-1.169041591,-0.1603311456,0.1165641378,4.160195408,40.1875,777,-502.6875,1
0.1269353719,-0.9024268818,-0.4827819221,0.2158646301,-0.3007633334,-0.7393215643,-3.633711205,34,779.25,-497.875,1
-0.6871905241,-0.635819691,0.1918837558,-0.027094195,0.007441109618,0.6135854467,3.955911952,31.125,778.0625,-498.8125,1
1.587916772,2.461303037,1.429120097,1.707510726,1.637900959,0.9510435688,-1.67892853,35.125,774.8125,-500.75,1
-1.095242029,-2.65069464,-1.371956961,-1.768284852,-1.597912969,0.2967578183,0.1467500162,36.125,769.8125,-507.8125,1
0.1711204699,1.731143139,1.609481435,1.797321147,1.454682828,-0.1921289521,0.1660627338,31.125,765.625,-513.5,1
-0.3547840564,-0.7891996444,-1.845353314,-1.806732526,-0.1539059545,-0.9600337021,-1.103335184,31.875,763.125,-516.875,1
-1.029841309,-0.6660621624,0.8045379838,0.7466266939,-1.558099126,1.180596984,-0.3780743617,27.6875,762.3125,-517.125,1
2.738346533,0.7945844729,0.466342372,-0.03526948785,0.5720712534,-0.8315897914,2.523093261,25,759.5625,-521.3125,1
-1.004707011,0.06049112746,0.06200899457,0.03831147016,0.4121738006,-0.3048817682,-2.101497565,30.75,757.3125,-526.1875,1
0.5361257386,0.8546358115,-0.1717894654,0.6418139735,0.1007399017,-0.3156153209,-0.681341784,33.6875,756.9375,-525.0625,1
-1.684349131,-1.279159808,-0.3496977873,-0.8942752856,-0.9356552619,-0.4162154323,0.3317015661,32,756.1875,-528.3125,0
3.349484747,1.836158982,1.167469409,-0.7858194896,0.834324025,1.294952802,-0.07196458667,39.125,764.375,-516.0625,0
-1.224144658,-1.361073682,0.4846166951,3.611312146,1.847290501,1.153506413,-4.900065559,23.75,783.25,-489,0
3.507803837,5.4352743,1.234608587,0.3612528203,0.2800343325,0.8280886529,9.605376438,2.3125,790.75,-482.625,0
-6.165634256,-7.502990168,-2.911838676,-3.665425837,-2.001365547,-2.447874407,-5.300505725,-10.625,808.375,-462.5625,0
-1.06903226,0.7714862611,-3.079501862,-0.08988903393,-1.847951204,-0.6980974037,8.01402396,28.0625,788.875,-486.125,0
4.191685833,1.679692313,6.06854961,2.812652011,4.49273416,3.282407502,-7.867671579,24.1875,777.4375,-500.25,0
-5.255028192,-1.411240849,-7.775881855,-4.659986759,-6.223968549,-4.48057957,4.755376708,58.875,780.875,-492.375,0
6.262615732,2.724411496,8.366098911,4.418339125,6.85289502,4.403528207,-4.115906274,14.4375,766.8125,-513.375,0
-5.344480338,-2.302596667,-6.871598168,-2.124641595,-5.266272987,-4.01631066,5.139252596,52.625,785.9375,-487.875,0
5.068581016,1.469737335,5.90216298,1.076791081,3.324376193,3.498734241,-7.601702024,30.1875,778.5625,-501.6875,0
-5.346424165,-3.214518758,-6.054909523,-1.61914569,-4.440052387,-2.847900075,3.504197877,20.625,784.125,-488.125,0
6.391882841,5.324291685,7.099391122,0.4888312122,3.557393659,-0.7736186396,-1.979728054,10.625,784.4375,-485.5,0
-2.584905707,-2.233025205,-3.757307072,0.7200602307,-0.1748709865,0.05626688608,-0.6155566212,15.625,793.625,-487.25,0
0.2198964521,-0.5582395212,2.148005201,-0.8474249214,-0.3649069743,0.7789885945,3.630634521,12.3125,789.5625,-487.9375,0
2.335848618,2.613732863,0.4198089366,3.424051603,2.050427858,2.348921747,-3.144778509,-6.4375,785.25,-492.3125,0
-4.633363094,-3.665028707,-5.469081854,-4.734059488,-5.078146663,-2.375054707,10.64056547,23.3125,781.3125,-498.5,0
2.671832992,1.24876534,5.256942331,2.817120544,5.496994006,1.411390857,-10.51478518,11,779.125,-501.1875,0
-1.97424321,0.7261265705,-3.560546166,0.5447678621,-3.21285675,0.1055334093,2.89543943,16.9375,774.125,-505,0
3.471460694,1.813579018,4.283945743,-0.6868595084,3.696483369,-0.3775107355,-2.082874905,8.6875,782.5,-490.1875,0
-3.1074699,-2.165319908,-5.570475362,-0.7011078127,-4.902226797,-1.760122331,2.646517591,17.75,813.375,-452.9375,0
1.728462529,0.5738001447,4.175825475,-0.4288339551,2.793612339,1.891928918,-2.131385879,4,783.8125,-492.625,0
-1.458726146,-1.644603795,-1.230971135,1.955640572,-0.712108046,-0.4668949999,0.1999277991,0.1875,796.1875,-480.5625,0
0.129386961,0.672620276,0.743255943,-2.379677169,-0.3181249191,-1.127588141,-2.168821122,18.5625,771.1875,-505.3125,0
0.6104625395,0.5164261625,-0.4751997613,1.186943764,0.1397527501,1.246016252,2.084171811,24.125,780,-502.5,0
-1.325739176,-0.6943336992,-1.876227951,-1.343173307,-1.912440993,-2.069677659,0.7937287036,23.9375,781.9375,-494.6875,0
2.769000859,-0.574583349,3.422995486,2.395399578,4.069089149,2.51795,-0.9738461216,-3.75,785.9375,-496.5,0
-5.943956125,-0.6997092324,-6.435439027,-4.241654047,-5.651952585,-0.7631079613,0.8136193281,-20.625,783.5,-494.1875,0
5.214542741,1.842513307,6.803853321,3.427494506,5.213346971,1.068514992,-1.314389023,-6.75,766.75,-514.5625,0
-5.139448366,-2.725240198,-5.548281734,-1.512726298,-3.205970861,-1.752439084,1.622277302,8.875,774.4375,-503.4375,0
6.531485965,4.214869194,5.865937871,2.092989772,2.959384711,2.151295244,-2.037760528,28.0625,762.375,-519.8125,0
-5.716991079,-4.671140352,-6.421494493,-3.035163007,-4.161683731,-3.499898986,-2.702116454,33.125,774,-506.25,0
6.391048889,5.375153758,7.8748001,3.189904798,3.956410422,3.561119799,7.550591276,37.25,778.9375,-496.3125,0
-4.127067491,-4.536733052,-5.873537231,-1.284790665,-0.8532106788,-1.567612828,-6.934711039,11.6875,803.3125,-464.8125,0
1.051387517,2.408027716,3.993691938,0.4351188019,-1.3426917,-0.3838988482,6.427483153,4.1875,799.5,-472.5625,0
0.4502397597,-1.692837654,-1.607738875,-0.1992908639,2.776909716,0.5638079202,-7.450468948,-25.5625,782.6875,-498.6875,0
-1.07121464,3.224457417,-1.902442112,-0.4281590102,-4.860304443,1.063634718,9.454183747,10.4375,807.625,-450.8125,0
-0.8093443531,-4.11769968,0.9735099816,-0.3543161814,4.406584128,-1.735346294,-8.894599935,1.8125,793.625,-482.125,0
-0.5515824432,1.871790417,-3.864472125,-0.6048816519,-4.796572596,0.395704638,8.055063003,-0.4375,802,-471,0
0.2063938546,-1.456128902,5.567645105,-0.2818145441,4.705891149,2.188373516,-5.507944834,-29.875,795.875,-476.8125,0
-1.913613282,0.8621289779,-5.59441306,0.8724571585,-5.420113748,-2.803298848,0.7318124983,-2.1875,808.75,-452.1875,0
7.326665109,3.10757334,7.894998156,1.900565049,8.301254919,3.529447306,3.123326223,-28.5625,807.6875,-459.8125,0
-5.665352759,-1.916732805,-7.58124444,-1.549514598,-6.509160385,-5.18469329,-3.685050305,-6,796.375,-476.1875,0
3.562136112,-1.33509432,6.711109875,-0.2959161415,3.918927665,4.203882774,3.59536061,-14.8125,785.625,-490.375,0
-4.857299848,-0.06389938825,-5.924472807,0.09718280094,-1.56997157,-3.376473241,-5.937616574,-21.625,790.5625,-487.25,0
6.852678431,1.773809401,8.00875379,1.363142949,0.1828455074,2.148953884,4.763620827,20.0625,786.8125,-488.4375,0
-2.022423121,-0.3870392051,-2.905804252,1.551115901,2.831995465,0.8123870147,-0.3822258683,46.0625,784.75,-491.0625,0
-3.192219228,-0.5501246206,-2.748347518,-4.22283815,-6.167337187,-0.1919442183,0.2722464985,11.375,796.5,-477.25,0
4.750560875,1.138250751,3.778519994,3.773899186,5.771394342,0.1805979544,-0.1659403339,-17.625,782.375,-502.3125,0
-6.111229365,-1.010003562,-8.90691703,-5.398605428,-8.665691591,-3.019581292,-1.875049393,2,786.0625,-492.9375,0
0.7202106893,-2.570666433,5.838841137,2.032479093,7.224497046,1.349052927,-0.2813006576,4.3125,769.1875,-512.5,0
-1.136541204,0.306519812,-4.110563694,-0.5645047874,-3.56839973,-0.3722214868,0.5332136755,49.5,774.25,-497.625,0
5.294287659,3.278429653,6.300382085,1.355660474,2.506149182,1.280868963,-1.071296723,8.25,784,-492.5625,0
-6.601576334,-3.887473747,-6.541112829,-0.4343605345,-1.213762161,-0.5543753367,1.579291432,9.6875,788,-487,0
9.947865551,6.524702286,11.02428722,3.875979879,3.948110454,1.137281011,0.9059002131,21.8125,770.5,-516.375,0
-9.948925362,-7.756449434,-9.086436058,-4.124959159,-1.287547475,-2.3332857,-6.071241087,23.625,798.0625,-466.8125,0
4.606344341,5.727507067,2.055323123,0.8802565729,-4.912685827,0.7207167116,8.528910393,3.0625,783.6875,-500.375,0
-0.443677178,-2.651176564,0.864556556,0.5531683359,6.222937688,0.09252431263,-4.937587676,-1.5,791.625,-482.875,0
-0.4969898044,0.4108223512,-2.757622954,-0.4733543499,-7.082086648,0.527244094,5.512815357,16.125,791.0625,-487.1875,0
-3.56671052,-4.661539428,0.1710528258,-4.16488071,3.247997607,-1.999998007,-8.974613665,0,804.1875,-469.3125,2
12.67061715,13.60947522,8.156812773,9.055484426,6.161534777,5.493173196,5.712433759,-12.5,818.625,-440.1875,2
-12.97129045,-10.19784646,-9.956612772,-8.241347256,-5.580762049,-7.229713209,-0.8743511019,-3.3125,812.6875,-460.5,2
6.212288504,1.831298603,5.202534156,5.351530645,-3.492308196,4.933886888,1.130949615,23.8125,786.25,-482.25,2
-0.5431342474,1.504261925,0.7706573958,-0.2212844486,9.679192848,-0.5276716532,0.5664350043,0.5,753.4375,-538.6875,2
-3.741486818,-3.865406343,-5.079947309,-3.828880449,-7.584458149,-2.692333967,-1.210946803,16,749.125,-542.8125,2
7.897315617,2.941125399,7.619667981,6.493876994,0.3994270027,4.839785185,1.030682045,23.0625,752.25,-535.3125,2
-6.667206393,-0.3094497021,-5.933916999,-5.384749796,2.294036425,-3.596726597,-2.747325002,24,743.625,-551,2
1.662337262,-2.401335055,1.983194779,2.078471784,-3.309609786,2.541901314,4.237406801,20,749.875,-532.6875,2
0.7747090562,4.90108593,0.05792338662,0.03570423564,5.361470209,-2.064275479,-2.52609264,23.25,752.4375,-539.6875,2
-4.476342813,-4.969064982,-2.893767273,-2.227922998,-3.220240969,-1.509188458,-3.10881992,19.0625,760.375,-527.875,2
8.126896765,4.159832671,4.507741577,3.602197371,-2.079100301,4.072066179,4.72446235,32.375,734.4375,-551.125,2
-3.472807009,-4.020750998,-4.324368678,-5.910656749,2.218322159,-4.066860864,-5.292157276,47.875,720.6875,-583.4375,2
-12.73799509,4.825691778,2.590172257,5.632492854,1.875450468,3.452861382,7.447459769,63,728.75,-562.8125,2
13.01234313,-5.960594888,-1.135537484,-2.121829367,-6.745311476,-1.086750204,-5.217799543,53.1875,760.5,-525.1875,2
-4.380166019,0.3249862176,-1.999949113,-4.451827572,4.480478698,-4.581784635,-3.767978289,59.6875,719.1875,-578.25,2
0.6871514829,1.851017211,2.651182995,5.3564978,-0.5922432521,5.372404007,8.364760201,25.1875,756.75,-526.5,2
4.41536589,0.7065835477,1.006840101,-0.1920815156,2.23946702,-0.8073411549,-0.03793352989,12.125,756.25,-536.625,2
-2.30212707,1.775798067,-2.477053521,-1.454823193,0.5837281222,-2.607696792,-13.12604018,57.8125,737.625,-556.6875,2
-5.137583257,-3.640789385,-0.5467431106,0.1766389511,-6.137504011,2.824602725,9.922618041,29.6875,769.4375,-499.75,2
7.292523623,6.997958522,6.589756868,4.511599701,11.50503292,1.564099867,3.771577969,47.8125,743.875,-552.0625,2
-1.552948349,-10.45390949,-9.17576387,-8.410985725,-9.796496037,-5.122217569,-7.434970503,47.25,757.8125,-532.8125,2
7.106219655,12.78710304,10.26232035,10.90971335,6.178167364,7.433898703,6.990353272,19.1875,763.5625,-510.3125,2
-8.158987033,-6.714241587,-5.005561007,-6.947667255,-1.777637922,-5.71720132,-2.868651605,20.1875,737.875,-558.8125,2
-1.10856549,-0.1576103261,-1.842362422,0.09104551026,-1.414896878,-0.6341782267,-1.484565889,37,740.75,-547.3125,2
9.090133781,3.031187009,4.183878309,3.460038451,-4.981920024,4.717295902,5.965904657,13.375,776.625,-509.25,2
-13.29354793,-8.06993456,-7.915474582,-8.978243226,4.284673908,-8.076931069,-9.886569862,53.875,735.25,-556.4375,2
4.935771958,3.320305786,3.936383019,7.083395183,-0.9801649194,4.945594905,3.952760241,31.6875,770.5625,-508.4375,2
9.795416015,10.71320979,7.432145014,4.831524256,6.59396197,5.837434625,7.583831168,37.8125,811.5,-446,2
-18.3104301,-16.62296322,-13.97175398,-12.77127834,-8.288205051,-12.60485751,-16.35759966,28.6875,772.25,-518.875,2
15.06242446,13.06822201,13.03855948,12.68196987,3.150207297,14.66584408,17.82512297,16.9375,756.0625,-518.8125,2
-4.890664464,-5.197515865,-4.491178479,-4.812194628,6.775920807,-9.406726307,-7.613983723,11.875,782.5625,-497.3125,2
-7.302415004,-6.213591985,-7.139335039,-6.432862945,-9.585381518,-2.863215951,-8.616514692,53.6875,780,-504.1875,2
13.67748197,11.46917623,12.88143937,12.07578993,4.348575153,12.13916575,18.23028133,66.25,778.6875,-468.125,2
-7.203044757,-5.197079104,-7.803160928,-7.460020319,0.8922692117,-8.640470398,-9.668409188,34.6875,771.875,-520.5,2
-1.634834276,0.3463576825,1.981450173,1.262051952,-1.15640483,1.060020865,0.440989633,-0.3125,773.6875,-508.625,2
5.185262751,0.3731601242,0.1918601145,2.129655236,-4.855118962,2.641037049,2.976668448,12.8125,791.5625,-478.3125,2
-4.987357995,-3.335937919,-3.028332735,-5.818630439,4.656972471,-5.498068442,-8.461755808,51.9375,776.1875,-504.875,2
-2.260416,0.8295740653,0.579345169,2.951571979,-3.071123793,2.013836821,6.663939731,17.5625,789.4375,-485.1875,2
4.651789297,-0.6362553349,0.006673908954,-0.7154485831,1.013041951,1.032792185,-2.202236532,-0.8125,795.3125,-473.625,2
-2.011252809,2.414239057,-1.144375691,-1.551010664,1.026193813,-5.082626436,-6.849485844,44,771.375,-515.1875,2
3.98551448,0.448685258,5.277402379,6.704798957,-0.5388588487,10.77323688,13.3235658,45.6875,774.25,-490.625,2
3.403058471,7.504866899,0.235892617,-1.475218305,7.848574833,-7.012742646,-7.702414748,40.3125,775.3125,-503.6875,2
-11.26488863,-13.21002264,-6.245746525,-6.01186708,-9.985121198,-1.471236786,-4.324794853,-19.0625,798.875,-477.5625,2
6.556417368,3.914524832,2.702603844,3.755100695,-5.166324398,3.155159207,6.061059239,33.375,789,-480.25,2
-5.762830885,-3.285809834,-4.522223083,-6.231751484,6.984839075,-5.762392982,-7.496342188,84.0625,760.3125,-519.6875,1
1.752531299,1.986545983,4.925389733,5.322418325,0.380311887,4.301187168,6.026229514,45.0625,780,-492.3125,1
5.444915702,2.893963981,2.799197434,1.693399983,0.6050461093,2.641568365,2.916303749,46.5625,753.125,-528.75,1
-14.69147297,-7.718368642,-12.26478648,-7.400284426,-4.424042367,-8.978522555,-0.4083842394,47.0625,765.0625,-511.3125,1
31.31737263,19.21773316,23.78777315,19.05396239,14.14440087,17.63941809,7.211197846,43.0625,765.5,-512,1
-33.94771036,-22.53703946,-25.7811893,-22.67420174,-17.9061054,-17.96356242,-12.09725582,38,745.3125,-545.8125,1
20.8904898,15.43841452,16.31825391,13.94325106,11.98372503,9.700738024,6.300629726,31.8125,738.1875,-557.5,1
-18.17650214,-13.71767646,-14.12497374,-11.96534941,-10.82240246,-9.064310776,-6.916035156,42.6875,751.0625,-534.4375,1
12.46329331,7.230031859,10.99432895,8.304269157,6.717752296,9.279749373,4.185600845,58.25,752.8125,-530.75,1
12.62721505,9.743850442,6.287074841,6.817124456,5.461883206,3.737431006,4.151239663,48.125,747.8125,-541.625,1
-17.79383375,-12.18584313,-9.706237653,-8.816604877,-6.765550325,-7.032006613,-5.089293855,43.9375,751.9375,-531.875,1
5.787942778,4.125149439,2.526851547,2.056514566,1.866205859,0.3889832273,-0.1476420001,45.8125,760.8125,-517.0625,1
8.849621288,4.545267463,7.040367184,6.011869217,3.079031163,8.36973598,8.506003675,50.375,759.1875,-522,1
-17.71531473,-8.93258816,-13.63398788,-11.19434723,-5.58951218,-14.58152351,-13.43974291,47,756.125,-524.875,1
15.30156024,8.331424227,13.48978924,10.23138771,5.590480099,14.70494592,12.9152104,43.4375,760.8125,-519.625,1
-9.667248355,-5.338150475,-10.08103983,-6.614138306,-4.774275231,-9.544632138,-9.230064552,40.25,763,-517,1
-2.751441705,-1.89988483,-0.7917023509,-2.315137283,-1.636769871,-0.8879916424,2.570952683,43.9375,762.25,-517.25,1
13.96005753,6.948772608,10.50981661,9.255837767,5.91691611,7.589714645,0.5580258414,41.1875,762,-516.4375,1
-9.121201303,-3.909241972,-6.479920818,-4.811442383,-2.861470459,-3.524862994,0.6317148941,33.9375,754.5625,-533.375,1
1.36077476,1.080355617,0.5259139395,0.2551424947,1.449696507,-2.597599454,-0.4528566421,31.4375,747.1875,-546.1875,1
0.5180112493,0.5671664674,-0.3890093492,-0.9003602284,-1.186020502,0.9371408647,0.4746445645,30.875,741.875,-552.1875,1
-5.086624153,-3.441988881,-3.965906694,-2.942210658,-3.703469627,-1.853417595,-4.846831408,28,742.0625,-549.375,1
5.663679294,3.621466757,6.145609757,5.138151452,6.331933499,4.365465478,7.072785838,28.125,744.8125,-551.9375,1
-0.3294895335,1.07812111,-1.004986547,0.1503669159,-1.166485826,0.3548968085,-0.7959577751,28.5625,742.8125,-545.5,1
-11.71992002,-10.22234475,-11.78265163,-11.16185375,-8.822504776,-10.41550534,-10.22978389,29.0625,741.375,-549.75,1
7.717063646,5.45103226,8.677855593,7.586010197,5.786773162,5.580779089,6.866851941,33.125,747.5625,-543.1875,1
19.19159106,15.35234182,15.71882321,13.2190301,10.2151795,14.07152086,7.656673554,35,753.5625,-532.3125,1
-22.60593402,-20.79317653,-19.59001031,-17.17410195,-12.65940056,-15.56826796,-12.04906398,19.5,745.9375,-546.375,1
3.955428242,9.007425756,4.822653329,4.751275528,3.580765701,3.694942093,8.042913768,18,750,-538.1875,1
6.097937864,-2.240524307,4.369084099,2.733720833,1.784483378,4.839708461,-1.788519502,24.375,753.5625,-532.25,1
-12.28477426,-4.979990885,-10.49325235,-8.02798101,-6.734981974,-9.093748825,-3.221009247,20.625,743.375,-550.5,1
6.530857767,3.421286515,4.944947012,4.839993309,3.779325608,4.811019951,-0.06661627499,12.875,739.25,-553.25,1
3.235576637,3.954017441,3.662918173,2.224660107,2.637087942,2.855382238,2.968609509,7.3125,740.4375,-554.75,1
-13.64533305,-8.925901357,-12.20178365,-10.22837773,-7.991666527,-11.96150994,-5.855838912,5.6875,744.75,-549.0625,1
16.11254173,10.24152655,13.02708606,11.68252646,8.884922596,11.17732058,6.405870436,12.5625,750.5625,-537.5625,1
0.6429430402,2.777736627,-1.385607981,-0.2033701048,1.237048214,-1.019981503,-0.4694800459,16.4375,751.6875,-536.5625,1
-7.04538694,-8.286782779,-0.6854006099,-3.226540211,-5.670653765,-0.997894872,-3.18940309,20.25,747.4375,-543.375,1
1.806831821,3.06032893,-1.836273895,-0.4323889571,2.393692903,-1.184637468,3.095908318,18.9375,756.25,-527.9375,1
0.2686271078,-0.9910008328,0.4804650252,1.344925745,0.5232319794,0.1758051165,-2.053792947,24.875,773.1875,-503.5,1
-0.01271103882,0.8837250813,-0.5942901626,-0.9613825667,-1.787997418,-0.9462222277,0.1060075562,24.9375,773.6875,-503.6875,2
-0.7651129215,1.785379059,1.301113658,-0.4958938685,8.370043336,1.881207418,1.142419305,33.8125,771.75,-502.875,2
-0.4762247776,-2.108852947,-0.4088640109,1.556586575,-6.502874384,-0.6180794981,1.154384649,25,781.0625,-502.5625,2
-1.662798042,-3.101439547,-1.579554535,-1.742443436,-8.566812113,-0.1516067901,-3.386370127,22.1875,766.3125,-514.9375,2
0.8832635629,5.291501597,-0.7036890965,0.2961821996,6.902936052,-0.62900459,1.3794806,18.125,762,-521.8125,2
2.631170046,-3.353529127,4.27397142,1.815035315,-0.6677005017,1.970155798,1.33294767,25.25,773.5,-509.875,2
-2.903355683,2.210244284,-4.246748352,-1.736630159,-3.523382267,-2.206370354,0.9468624021,25.5,769.375,-515.1875,2
1.568048055,-0.8580372402,3.155875051,0.5668196526,7.153787582,0.7813162246,-2.320365846,28.25,766.8125,-517.5625,2
-0.6481377906,-1.693001502,-2.575868528,0.6270897022,-6.255303178,0.6260222942,2.244256262,9.9375,771,-505.25,2
0.05134444798,-0.9653435722,0.5371312371,-3.069371183,4.953363781,-2.272872847,-5.307588154,10.125,735.8125,-567.5,2
-0.4425837653,2.2585563,1.894509979,3.396544042,-0.6409261653,2.761570752,6.092570697,11.125,759.375,-523.5625,2
1.277052949,-0.5767438731,-1.746139357,-1.739605615,-1.056225178,-2.050521165,-1.793674559,45.3125,760.125,-525,2
-3.667317076,-1.819431547,-2.499318274,-2.132966105,-1.217086534,-1.955583775,-3.713787041,60.75,757.1875,-531.5,2
3.744317769,1.776515572,3.669580404,4.488606878,-0.221492587,4.600875533,5.383352676,26.1875,790.6875,-470.75,2
0.5953557519,0.9833438768,0.4776404645,-1.881769271,7.854356673,-1.282750388,-4.678218321,19.8125,745.625,-555.125,2
-1.470833792,-0.4054043014,-0.8845657193,1.115491737,-4.160586972,-0.2128044211,1.892042966,34,764.75,-518.0625,2
1.046601158,-2.296242799,-0.7263268602,-1.841798436,-7.168324588,0.0679099377,-0.134047844,59,751,-534.75,2
-3.658632135,-0.07065886949,-2.026193291,-1.932062568,6.100486171,-4.603793916,-1.223483622,65.875,739.125,-551,2
5.09998258,2.279270365,4.012306889,4.881518673,-2.323588699,8.53839106,4.359068285,34,748.1875,-533.6875,2
-0.9571094563,2.406863268,-1.564304171,-1.972339782,5.570712957,-4.827728792,0.3874070437,39.625,720.6875,-577.75,2
0.005767142766,-1.269733916,2.598391227,1.375807832,-1.34827347,1.39665213,-2.404476623,42.0625,727.75,-569.3125,2
-2.122960384,-2.452821948,-5.083384459,-4.484891099,-8.037468493,-1.871588944,2.451790624,3.875,756.8125,-530.9375,2
-0.2904213571,1.08419697,1.197662853,1.835097928,7.76560368,-0.1445671751,-4.450758474,9.625,734.4375,-563.0625,2
1.050564657,-0.7730049954,-0.9195538149,-0.2618165111,-7.848400769,-0.09753732613,-1.592558227,18.1875,745.5,-545.75,2
0.477317045,1.347285394,3.282005977,1.586456364,9.235621471,-0.3381873532,1.457820323,36.3125,737.75,-556.25,2
-0.1246255413,-1.484348388,-0.8087055676,1.027011864,-5.581567637,5.582137058,5.175660682,40.375,761.3125,-519,2
2.456213996,2.764306879,1.081002881,-0.7907167266,6.938371007,-4.019313772,-2.311920622,26.625,744.625,-550.875,2
-3.030274181,-2.42152009,-0.4046847566,1.110695508,-2.862892555,1.326153915,-1.225523723,27.625,754.0625,-533.0625,2
8.277245561,6.766484172,3.428552573,2.420799386,-4.817830182,1.42704923,0.6934925703,80.3125,722.8125,-567.0625,2
-10.62136169,-10.13992845,-7.773461415,-6.875059142,1.756683073,-5.401450525,-2.641505758,66.0625,720,-581.625,2
6.164938221,8.123351515,7.345152585,7.387462316,2.353456583,6.526831846,3.780968477,36.4375,751.3125,-530.25,2
-2.43784772,-4.398673093,-4.034135551,-4.689814969,2.688724814,-3.794616036,0.5193422532,36.1875,747.875,-543.0625,2
3.830349287,4.347462257,3.432716284,3.850035185,0.5422274035,1.851763375,-1.949701841,28,757.625,-532.125,2
-7.527594094,-7.452747827,-4.426203953,-5.037660013,-12.2112953,-0.7570777637,0.808539593,71.75,775.3125,-495.8125,2
3.331358303,2.91480061,0.760864161,0.2410944642,9.622232134,-3.552056387,-2.700137859,61.0625,749.625,-538.375,2
6.975347819,6.033229459,7.71724819,8.616234173,2.975629378,10.43154777,6.647167166,33.375,772.375,-507.125,2
-8.936347243,-4.111224957,-9.623154061,-8.814489077,-2.170776773,-10.40960457,-2.959009225,9.75,752.9375,-538.4375,2
-1.690583103,-5.266884066,-0.8358727232,-2.324411476,-4.362921633,-1.494527733,-4.750799102,53.4375,736.5,-554.625,2
8.401925278,6.474081849,7.111687874,8.832940689,1.004128327,10.07868042,5.040573736,78.25,740.875,-539.75,2
-6.385831814,-1.913819833,-4.779945607,-6.529577905,3.585603837,-8.624380532,-2.846690933,60.9375,722.5,-579.1875,2
-0.2381526875,-1.615791237,0.6177771386,1.487239104,-2.907900736,2.939034209,-1.061232546,46.6875,757.25,-529.5625,2
3.0122,-2.238439316,0.07316398291,-1.250618012,-6.853878626,-1.375818116,0.5102926763,32.3125,766.9375,-516.4375,2
-3.216771233,2.260394351,-1.055446368,-1.127849901,7.266970967,-0.8649506311,0.4747852268,41,751.5625,-537.1875,2
4.946086816,1.676771908,3.396773777,6.607354925,-0.1502400055,5.074002895,1.662046851,19.8125,732.625,-563.6875,2
-2.872203032,1.168394949,-1.554637691,-4.433534232,1.868318122,-4.081069624,-2.678710487,34.875,737.5625,-560.625,2
-6.589883278,-8.89561752,-5.338284369,-4.448019024,-5.117516699,-3.939287759,-3.940404931,59.5,773.8125,-502.6875,2
7.680509668,7.655871004,5.507439252,6.692901528,-0.8899040598,7.323272629,8.089871991,56.5625,790.8125,-471.3125,2
-2.857441969,-1.498273697,-0.9768397846,-3.743431541,5.156445165,-3.759777081,-4.89954132,62.75,745.75,-545,2
4.956176646,3.838729819,4.763427258,6.426395281,0.7080471129,6.112195777,7.740441233,72.25,740.25,-541.375,2
0.04517813861,1.847988989,-1.951889715,-1.907439493,4.832946868,-3.640292505,-5.098083155,130.8125,744.875,-530.25,1
-11.88138475,-11.44376572,-7.789365361,-8.026546799,-9.465840496,-4.43604228,-2.399748282,86.4375,750.6875,-533.875,1
11.4760606,8.066037521,8.23836199,9.007724406,2.158237518,6.922525058,3.829364384,27,770.8125,-506.5,1
-6.765808345,-4.615157359,-4.922202569,-6.811210413,-1.847191887,-4.79026141,-2.818153625,20.4375,767.5625,-515.25,1
2.151776281,2.484388918,1.015514475,1.678460783,1.300409312,1.144995573,0.1365575212,34.9375,743.6875,-547.875,1
1.985257536,1.625409,1.103124975,2.579693381,1.47526745,-0.4731272033,-0.2526753507,41.75,730.9375,-567.9375,1
0.1526169201,-1.910473828,-0.07271419298,-1.206389964,-0.2093694538,1.342661555,4.840561027,31.625,744.0625,-547,1
-1.416342166,1.637658733,-0.5067300723,-0.1553337556,-1.049458046,-0.3470881839,-4.366648911,33.5,750.25,-537.875,1
0.7749103175,-0.8310190884,0.1510325087,-0.302458791,0.8717004591,-0.3179312351,0.1119932364,35.125,762.1875,-516.625,1
0.2096679388,0.2250095737,0.8896941866,1.343473563,0.5982297792,1.207123559,3.468508543,36.5,763.5,-515.5,1
0.3018527731,-0.02582708972,-0.2321581631,-1.373635973,-1.427453729,-1.942340188,-5.143219097,35,755.875,-526.125,1
-0.2605995154,-0.4700038774,-0.6041865818,1.349874654,1.386288156,0.8011219773,4.042179317,30.625,754.3125,-527.5,1
-0.284771136,1.961841435,1.793671777,0.2955309515,0.5796499499,1.061354429,-1.395099179,32.3125,757.1875,-527,1
5.331226381,1.467999193,0.9208370677,0.6952452126,0.3059363348,0.4844198102,1.799558463,36.9375,752.8125,-533.6875,1
-5.64022587,-3.409731928,-3.069953323,-1.427266721,-1.140962363,-1.436538901,-1.766967084,33.3125,747.4375,-543.125,1
-0.4804272611,1.380236427,0.8145946479,-0.988122969,-0.973307552,-0.1407295647,-2.196325668,23.875,747.0625,-543.375,1
1.248853766,-1.856345651,-0.5305884025,-0.06143785505,-0.08275396896,-1.058447112,1.707521941,19.6875,749.125,-541.0625,1
-1.744330904,0.3778770294,0.3916051317,1.301123736,0.9550462241,1.674621449,-0.2099040296,22.625,751,-536.4375,1
1.978010445,-0.2481074727,0.2435252806,-0.8341263802,-0.2440369874,-1.328713297,-0.3908854758,18.5,746.6875,-544.375,1
3.761587973,5.888306615,2.339257872,3.729562338,3.384724378,3.362187047,3.83668553,12.9375,746,-545.1875,1
-5.588382284,-6.843060335,-2.754608181,-4.607169389,-5.023982947,-2.168245328,-2.005559904,11.9375,746.6875,-545.1875,1
2.226528846,2.62447294,0.1566393814,2.130013551,2.315879052,-0.8981004332,-1.19664667,14.9375,747.0625,-545.0625,1
-1.019777502,-1.420793628,0.06144093894,-1.333732831,-0.8154202314,0.215328455,1.130946455,16.25,747.4375,-545.625,1
-1.623275543,-1.437690179,-0.9772442048,-1.360339431,-1.773875846,-0.5566982755,-0.9771891748,9.8125,747.6875,-543.5,1
1.634578008,2.09803898,0.7049975082,1.290384707,1.509627935,0.1327438499,-2.916515514,8.125,749,-543.1875,1
-0.5946514534,0.713410647,0.1497714542,0.34358027,0.3787934681,0.1015010338,3.011708088,10.75,750.5,-537.5,1
-0.9458461706,-2.625143719,0.3606289205,-0.4376169216,-0.2234499901,1.120273691,-0.3138197826,13.125,751.1875,-539.0625,1
0.5876121569,2.263670563,-0.3926197949,0.02327170837,-0.2163652389,-0.2948913797,-0.5696165915,6.75,748.75,-543.125,1
4.286040335,1.037375589,2.91486413,2.035118954,2.003561549,3.310041824,3.208029548,3.1875,748.1875,-542.8125,1
-4.382508019,-2.328840355,-4.149170684,-2.349434082,-2.398278576,-4.989943451,-4.927387414,7.6875,750.25,-539.5625,1
1.350420095,0.01827887345,1.374502989,0.2575291839,-0.1846131692,1.072206103,3.249016786,15.25,751.25,-536.25,1
-0.01803989389,0.4475490792,0.1270614855,1.122225439,1.170200828,0.5732486705,-1.094140507,15.125,747.9375,-542.6875,1
-1.055151012,-1.441838746,-0.5436811341,-1.849583177,-1.387629627,-1.526268164,-2.273207687,8.375,743.75,-550.625,1
1.640402803,2.092665976,0.7440522898,1.232796385,0.8795951099,1.445431517,2.210922079,0.625,741.8125,-553.3125,1
-0.04542908952,-0.993789925,-1.339026952,-0.6413815725,0.5156560122,-0.8036486751,0.2252877332,2.5625,743.625,-551.375,1
-0.437946751,1.855141246,1.934792203,1.908321001,-0.2358576969,0.7794337512,-0.9340205376,12.875,742.75,-550.1875,1
-2.313939429,-3.017808294,-2.041464812,-2.281765322,-0.714363012,-0.03039090845,0.8582371011,15.6875,741.5625,-553.0625,1
1.915814811,1.604217811,0.2767583145,0.6046594616,0.3193522476,-1.344332152,-2.295732873,5.6875,738.875,-555.75,1
1.26100158,1.239792015,1.038287601,1.62101138,0.3357636149,1.963456391,4.208136505,1.5625,739.25,-557,1
-0.2843726962,0.1209469682,0.5598652789,-1.025617993,0.3748757579,-0.3672225348,-3.164813485,11.5625,744,-549.625,1
-1.879963854,-1.076444607,-1.213239489,-0.7240923854,-0.6098047715,-0.894968776,2.467781456,15.1875,747,-545.875,1
1.415835307,0.8308215067,0.9448129097,-0.05255730382,-0.5562013589,0.5112496589,-4.217632476,14.8125,746.0625,-547.125,1
-0.314724029,-1.321090089,-0.4756783084,0.9521661216,1.012225029,-0.5597574282,4.63893909,6.5,739.75,-557.0625,1
2.321433738,2.398075554,-0.4063691466,0.075161587,0.171863753,1.595648603,-0.8617057043,4.9375,741.3125,-553.8125,1
-3.490801978,-3.640925629,-0.4115255229,-1.504287491,-1.088126721,-3.40564185,-1.081818334,10.375,744.5,-549.4375,1
3.358660364,5.104122486,2.177418456,3.507640782,2.628186594,3.887972613,1.511198158,10.3125,745.5625,-545.75,1
-4.045099625,-6.288083903,-3.425369487,-5.806384898,-4.373568025,-3.24411972,-2.298542622,11.9375,742.9375,-549.8125,1
1.743113708,4.129247279,2.70997505,4.158753547,3.048993227,1.975292014,-0.168223072,8.8125,740.125,-555.1875,1
0.5300499889,0.2145995396,0.7580506917,0.6180424305,0.2806445244,-0.1542311437,0.8851761277,4.9375,740.875,-556.6875,1
-0.3036187825,-1.674377589,-2.992470221,-2.036950027,-1.284826232,-0.4541456645,2.375363252,2.8125,741.3125,-554.0625,1
-0.7718671284,-1.161936536,1.374207278,0.1601290248,0.2856349312,0.469181583,-2.515031768,3.75,741.75,-553.125,1
-0.5272112288,0.03290048909,-1.058698879,-0.7448855795,-0.3652596736,-1.468779625,-2.426776538,5.9375,739.25,-556.6875,1
5.906672399,6.378481887,4.192051534,3.867821751,3.108578945,2.725384688,5.044798249,7.375,738.875,-557.625,1
-6.03218975,-5.532196356,-3.965559559,-3.221094145,-2.571985634,-1.711938799,-2.332208882,9.6875,738.75,-557.25,1
3.080372519,1.822353358,2.246263445,1.229531183,0.6020381539,0.8922690249,0.881023685,7,738.4375,-558.6875,1
-2.339183027,-3.648219047,-1.772763394,-1.947874411,-2.096722415,-1.895973999,-4.149174353,3.9375,742.0625,-553.375,1
0.421503455,3.669078544,1.286393504,2.129816419,2.474647245,2.130226193,4.693113563,1.0625,744.3125,-549.375,1
1.177101453,-1.108191636,-0.873425307,-0.2209450855,-0.6401520806,-0.2587089157,1.321968235,2.1875,746.375,-548.1875,2
-1.509390274,0.1636910945,0.6260760554,-0.06547805021,0.7364470708,-1.952320401,-2.639792035,7.8125,748.8125,-543,2
1.08762092,0.7463438518,0.2989890764,-0.7012356107,1.530017338,3.58165964,1.387946125,9.9375,752.125,-537.6875,2
-5.53139055,-4.932309494,-3.594700786,-1.137920946,-3.172782755,-4.716348801,-4.709005573,12.5625,742.5,-552.625,2
6.087018599,4.593453064,3.108541586,1.281797683,-0.4671784189,2.825017992,4.249676973,28.4375,751.625,-534.8125,2
-3.334631371,-2.80866414,-1.271278121,-1.870978775,0.9370113194,-1.654647615,-3.431834655,27.4375,742.5625,-553.75,2
5.76745544,4.101526352,3.110444359,3.547956964,-1.914233464,2.052501403,4.584012285,43.9375,771.5625,-506.5625,2
-5.000556378,-3.769563154,-3.351786454,-2.760341165,2.599161957,-3.048876694,-4.455808817,52.1875,746.375,-541.8125,2
-1.627920885,-1.975990366,-1.386926025,-0.9926343608,-5.857587183,0.4561817033,1.658531143,20.5,757.4375,-528.1875,2
4.751685904,4.921371539,4.810697122,3.874119094,8.209394308,4.687097447,3.443098377,15.5625,730.4375,-568.125,2
-1.608862212,-1.352681021,-3.305865039,-2.637254198,-4.836949942,-3.942284342,-4.825150617,12.5,759.375,-528.25,2
-3.161094826,-1.464325473,0.6698184551,0.5373720058,3.465104903,1.686144605,2.779407592,16.75,748.5625,-542.0625,2
2.44889975,0.4106603258,-0.7481251197,-0.8732259557,-3.607921457,-1.210897159,-2.431802683,20.375,761.3125,-521.8125,2
-0.3513183595,0.9653960723,1.517856403,1.251963906,3.007553905,0.7182410622,4.362336089,12.4375,748.1875,-540.875,2
2.64680331,0.796694308,0.1029909242,2.055130975,-1.50898108,2.725704976,-1.371409571,23.0625,752.3125,-537.0625,2
-3.578375838,-1.604425905,-0.858596027,-3.302967069,0.9793667753,-3.315916713,-0.8504947313,40.5625,738.375,-553.4375,2
-2.506403749,-5.089891446,-3.854092728,-2.834776794,-8.186661528,-2.550919152,-3.264111462,36,761.625,-519.4375,2
4.078052935,6.812319872,4.959158914,4.123250181,10.84283379,3.52342423,3.300014288,33.4375,764.1875,-522.8125,2
3.353225273,3.300015921,0.2620727265,2.026083169,-6.688889745,1.20545367,1.960483463,26.9375,774,-503,2
-5.354273778,-7.246506127,-2.20960102,-3.546027083,4.228239192,-3.507786335,-3.84839628,21.5625,756.3125,-531.75,2
-1.679092916,2.297640468,-2.994635155,-2.132895175,-8.225354828,-0.05257764494,0.3711180584,44.5,748.375,-540.5625,2
8.583825198,2.491683277,8.859982128,7.201066824,11.6803322,3.379821615,2.11214054,44.25,745.75,-545,2
-2.997210197,-1.113505839,-5.018137484,-3.429557333,-8.495534069,-2.459242909,-2.472328868,24.125,773.0625,-502.4375,2
-9.431816883,-6.689992768,-6.267662984,-6.111932751,1.220480567,-5.467699452,-2.802783283,67.875,759.625,-522.6875,2
21.84061253,19.66963193,17.71886309,17.19995732,9.63715496,15.70846674,9.91022397,83.125,750.875,-524.75,2
-14.98609862,-15.85574337,-11.03734996,-12.54233434,-5.211683395,-10.54318882,-4.871221048,91.4375,745.25,-540.0625,2
-3.10087305,-2.261385067,-4.453119962,-1.897041215,-8.054969871,-1.729366499,-4.845267457,55.9375,775.75,-496.4375,2
7.025669586,6.185656778,6.394358225,4.227488547,9.849970859,3.23809685,7.063886169,31.9375,745.6875,-550.6875,2
-4.706374727,-1.501465386,-1.733978154,-0.5188954545,-5.203440812,1.262771338,-1.365544043,38.75,787.5625,-478.3125,2
8.385397184,5.973033033,2.349764777,2.139969757,7.229794025,-1.287288966,-0.8224961798,45.25,762.1875,-527.3125,2
-6.387002233,-6.04564234,-1.497672517,-0.6780502837,-5.356345946,2.924500814,3.564408193,51,792,-477.3125,2
-2.106124715,-0.1003078533,-3.328132826,-5.088656128,0.20823844,-6.215628626,-7.564965754,43.875,768.4375,-513.125,2
1.960438021,1.313766334,3.991450547,5.421909898,2.935795882,4.871055604,4.74913829,51.8125,773.4375,-499.5625,2
1.96451877,1.925202412,-0.4532455911,-1.201018485,0.1536473575,-0.5870448873,0.4983821283,33.5625,769.0625,-515.3125,2
-4.221336864,-4.66669137,-0.3967304419,-1.057429268,-1.01898613,-0.4650862027,-1.25148056,47.5625,762.8125,-515.75,2
2.109573503,2.380156369,-2.34705971,-0.4616887383,-4.688673158,-1.268617424,-1.298061358,31.75,763.5625,-517.9375,2
-0.9515888156,-2.32448303,1.990326005,0.6136971107,4.479718509,-0.7814263503,-0.06354101373,25.875,755.4375,-531.25,2
5.607376194,5.460513321,0.7099431952,1.368323953,-4.101307679,2.11999037,3.392686806,57.25,750.125,-535.4375,2
-7.1175587,-5.918531295,-2.002890428,-2.872919932,2.658948305,-2.892500192,-5.829656472,68.0625,733.5,-560.5,2
3.67288883,3.130620324,0.7856373437,1.895403192,-4.651199056,3.516917387,5.184682207,39.25,767.375,-510.375,2
-4.039159273,-3.918846951,-2.161960565,-3.412783761,5.066012404,-5.213163731,-6.5106469,39.3125,763.9375,-517.75,2
2.598372355,2.247516023,1.464552393,2.893831164,-3.293253314,3.998856505,5.245065951,43.625,752.75,-533.1875,2
2.2825892,2.299723424,1.865350132,-0.796009461,4.298283781,-1.16005938,-2.810159284,28.1875,742.375,-548.875,2
1.468011092,0.756699216,2.89583583,5.665088383,2.691915382,6.149724045,7.853552509,25.75,753.875,-534.625,2
-4.499305113,-3.177637042,-6.184421805,-7.853138836,-5.52008543,-8.080714683,-7.275775192,56.1875,748.5625,-537.9375,2
2.800348103,3.095938914,4.292905043,5.647110128,4.331740704,4.69461572,2.895449059,43,773.8125,-504,2
-2.499278703,-1.500570664,-2.641361979,-3.519631683,-3.340420498,-3.253042969,3.074014668,47.625,739.4375,-557.1875,2
-0.2774448638,-1.911633176,-0.1317777302,0.763078769,1.457767617,1.59429877,-6.425149746,61.25,734.625,-554.75,2
6.088851813,3.771364308,3.186372522,2.517637618,-0.2235806761,2.389911882,5.603596143,23.5625,754.625,-535.0625,2
-6.014525811,-4.212947584,-2.225171837,-3.278724133,-0.0008502487176,-3.016787337,-5.862175625,22.25,749.4375,-541.1875,2
-9.920481312,-5.95244326,-11.64734933,-6.975991474,-11.13274917,-8.592352901,-5.347063328,29.375,755.0625,-530.4375,2
7.835071895,1.668180584,10.16680253,4.254534874,8.687763747,7.825972891,8.027993912,60.375,761.8125,-517.4375,2
18.10577775,16.71497919,11.72883353,13.44537375,7.375429614,9.29966373,6.272398009,74.25,768.875,-503.4375,2
-21.10143813,-14.6050764,-15.18922297,-15.28920982,-8.62932825,-13.65802008,-9.494602102,67,754.75,-530.875,2
5.33366963,2.309299647,5.671196157,6.67792449,2.171974239,8.082740622,5.935436542,59.875,775.75,-496.3125,2
12.16032673,6.321575363,6.307404699,2.89222231,5.060799121,2.419883605,-3.756896274,47.9375,775.0625,-501.375,2
-18.06279372,-7.472758123,-11.24530677,-6.028647416,-5.30111333,-6.773395783,-1.710139002,61.4375,770.5625,-512.25,2
7.344528751,4.025103603,4.124809903,3.206986351,2.829850159,2.161030919,3.596928454,81.625,756.25,-521.8125,2
2.456081982,0.2201118663,4.631763364,2.100109864,0.9856835225,2.255351956,3.477695534,88.0625,754.5625,-523.3125,2
-3.608972906,-0.6746136829,-6.407424853,-5.132966938,-3.100714612,-3.601091505,-8.099233792,53.0625,749,-544.0625,2
0.3173413806,-1.143265031,1.313864947,1.504143558,1.746787629,1.412760446,5.206733841,49.125,754.4375,-531,2
-7.652927112,-5.005789069,-4.241269749,-3.851512737,-4.819198661,-3.357631326,-3.447133337,66.125,757.0625,-525.5625,2
13.54509064,10.1526473,9.103217881,8.645719721,8.589526872,7.020652996,3.047213205,77.5,726.0625,-563.4375,2
-0.308392693,1.940719122,-2.736148447,-2.103160759,-2.221566373,-5.080108619,-1.287010239,58.3125,747.1875,-547.4375,2
-9.427003434,-11.13977447,-3.096949345,-4.193860674,-3.974384799,-0.4502573803,1.193706749,66.25,750.375,-532.625,2
4.295974246,4.598660147,0.8738362899,1.076607876,-1.548418747,1.945878579,-2.163927761,46.0625,769.8125,-508.1875,2
3.053688638,3.307285738,3.47325955,3.507239727,6.318469585,2.344820065,3.142335988,51.3125,721.375,-577.125,2
-2.480763137,-3.246986981,-2.889580243,-2.741082315,-6.638120582,-3.134229021,-3.734663943,35.75,772.9375,-499.3125,2
-6.256184069,-6.987305254,-4.433689824,-4.81632565,-1.091001688,-3.681907217,-4.058540301,52.4375,739.625,-559.0625,2
4.702788149,6.040103636,4.093358615,5.097322181,1.748617097,4.79902857,7.672848203,41.125,776.75,-495.3125,2
10.225552,6.000418762,6.63852624,4.182647282,6.640167657,3.783456883,-0.4384774403,62.8125,765.0625,-514.8125,2
-16.15986583,-9.64029596,-10.25966847,-8.183657437,-10.41594608,-7.415690085,-4.18728504,39,797.75,-471.25,2
2.690570346,1.500917605,0.7223442261,0.9457076149,5.145489845,0.2454144798,-0.186804883,37.375,769.25,-515.75,2
8.859458038,6.181668037,8.275584386,6.269136299,3.20625966,7.494784133,6.021747685,44.875,741.75,-543.5625,2
-6.749779614,-4.699415589,-8.788349689,-7.56363,-4.489604631,-7.470285804,-4.173871996,24.6875,731.9375,-567.125,2
8364.319622,8328.691343,7838.721486,7370.750767,7257.441118,8260.807574,8072.115555,11.0625,833.875,-423.4375,1
-787.0887043,-784.146524,-667.8887428,-533.3919269,-500.2896114,-772.7291638,-731.6481609,10.5,834.5,-426.25,1
-779.2086468,-767.6977591,-680.0874953,-612.3361315,-595.103817,-753.0375142,-714.3789718,5.8125,827.8125,-435.1875,1
142.7227221,139.6971193,118.91482,102.2533458,97.82856884,137.6297454,128.3669578,1.5,822.8125,-447.125,1
3.412439181,3.546545355,3.301183399,0.9771551199,1.836046303,4.542729762,2.068023213,6,812.625,-459.5625,1
-4.010032646,-2.971537122,-5.031276608,-2.643244631,-3.818980087,-5.722024456,-4.339008513,3.1875,805.1875,-475.3125,1
3.038451715,2.640931078,3.293057512,1.55386837,2.940282991,2.325341578,3.372530347,-0.25,813.75,-458,1
-0.7584402093,-2.893052858,-1.23147532,-1.959336358,-3.000259718,-2.121362846,-3.340434623,26.125,784.125,-496.1875,1
4.135499744,5.54550716,2.732792409,5.07735672,4.594057819,3.699923931,4.975681354,10.625,804.4375,-473.5625,1
-5.69957861,-5.189373151,-3.193613789,-3.795753426,-3.214438816,-3.208417941,-2.64403558,8.6875,812.625,-459.9375,1
0.8810415998,-0.09561161878,0.5923613051,-0.3853930602,0.3452513246,2.163325271,0.1798337726,0.75,798.6875,-484.375,2
4.695255431,6.654239523,4.318051678,4.95729956,4.761562751,1.373040795,5.155996557,5.6875,834.375,-414.5625,2
-5.246319173,-6.759585869,-5.723272774,-4.092743315,-5.321005787,-3.494077115,-7.353386388,20.375,833.75,-428.9375,1
1.779531805,0.9495364219,0.9595708337,-1.848593495,-0.0004912900759,0.3116176897,2.048991912,4.8125,830.3125,-431.875,1
-2.98485465,0.587331852,-0.8054273101,1.227243106,-0.2870551246,-0.7031469016,-0.05382891291,16.375,834.5,-418.75,0
2.984564161,1.54622542,1.376345319,1.508306261,1.857734104,1.837730815,1.813868614,12.6875,841.25,-418.375,0
-1.877387978,-3.757084609,-1.272670672,-2.027334741,-2.225936146,-1.575179494,-2.665329707,1.875,825.875,-435.5,0
0.8317329747,1.944946667,1.417079072,1.132459096,0.614183982,1.740352001,1.945152581,0.9375,820.6875,-446.1875,1
0.8935086186,0.3696422208,-0.2829967024,0.1328591208,0.37345067,-0.7631302582,-2.180469034,3.875,821.125,-446.0625,1
-0.4190073452,0.6213204294,0.7227229561,0.3642611521,0.6212029865,1.876717812,2.206184158,2.75,818.1875,-453.75,1
2.465296957,1.222751655,1.664330991,0.4727241718,1.775798577,1.089374842,2.068241137,0.625,834,-423.9375,2
-3.157570962,-3.304073545,-3.86423023,-2.052210767,-3.818067277,-5.001507022,-5.171349278,47.6875,800.5,-472.5,2
2.707062454,2.896374464,4.34184218,3.726176072,4.328494803,4.96036203,3.313244889,36.6875,807.125,-466.3125,2
-2.850869218,-2.24070484,-3.257564475,-3.497236303,-4.249205164,-4.060883848,-1.456923493,39.375,786.0625,-496.125,2
1.796751671,1.973242934,1.074135919,1.908112384,2.982547129,2.116256148,1.69827872,30.625,803,-475.6875,2
0.4803213511,0.3199453212,1.396910658,0.1287334701,0.3026588096,0.549810082,-0.7404910688,12.3125,816.8125,-446.5625,2
-1.296837227,-1.657071604,-2.875526977,-1.653271966,-3.716933346,-1.549716021,-2.180887754,22.625,760.9375,-530.25,2
3.649124485,3.061802423,2.494715998,1.203529674,3.906926682,0.9920062309,4.642279182,9.125,776.3125,-505.625,2
-2.557243542,-1.598941388,1.340252896,0.8421307595,-0.09584098989,2.014912436,-3.755986199,11.625,776.3125,-509.0625,1
-0.4261870435,-0.8555005625,-3.308208808,-2.265448483,-2.339819662,-4.486283898,-0.1504383759,13.125,773.4375,-507.5625,1
-0.7882439923,-1.062781175,0.6165218391,0.8880264285,1.434740142,1.945415512,1.940777876,13.875,777.8125,-504.3125,1
-1.121984522,0.01780178857,-0.8114207932,-1.244507475,-1.494583299,-0.6123702196,-1.759870213,9.5,775.9375,-506.4375,1
5.06694289,3.782150751,3.361073782,3.756546855,2.889446353,3.159247572,1.791978079,10.0625,768.3125,-517.1875,1
-5.394679432,-5.63766895,-4.473636002,-4.965316736,-4.163172647,-4.981503242,-2.656727245,12.5,769,-515.1875,0
1.70533974,2.199159888,1.793355961,1.500711137,1.282908395,1.388453874,-0.1761871438,16.0625,741.375,-559.4375,0
2.826683414,3.100850763,0.9085015982,3.060700062,2.2618552,2.126147474,4.426417794,37.75,762.4375,-521,0
-3.818560248,-6.470353671,-0.9924529376,-3.312556079,-2.322394761,-1.665325534,-4.194915086,45.6875,756.4375,-533.5625,0
0.5390910636,5.635788836,-0.2777294344,1.326053799,1.209561518,0.2596555604,1.618218846,42.875,758.5625,-529.125,0
0.6138051874,-2.301165242,0.4880001221,-0.4183844304,-0.9911265259,-0.421783628,-0.595658252,19.4375,761,-525.6875,0
-3.564955736,-2.352759585,-3.274065653,-1.91855571,-1.584352816,-1.741439484,-1.639170316,11.625,744,-554.1875,0
3.589248758,2.989288318,3.434686543,1.681353744,1.480644046,3.197649195,2.316189929,8.4375,740,-555.3125,1
0.56560912,0.1505297914,0.1613200209,1.095971138,1.819105367,-1.607057415,-0.2679403291,5,741.3125,-559.5625,1
-1.354011117,-2.007180039,-0.5371565307,-1.412392995,-2.352288493,0.376704486,-0.3277751267,6.625,726.5,-579.4375,1
1.13513747,2.179640433,1.012196053,0.701427806,2.464090059,1.262947152,1.438484589,14,729.1875,-575.1875,1
-1.248495976,-0.02042867721,-1.544670853,-0.626419723,-2.035250732,-0.9279306144,-1.012187321,17.8125,726.5,-579.5625,1
1.272079339,-0.9918533136,1.149793716,0.5900390071,0.8236157979,0.7203818334,0.1539684147,27.375,728.375,-574.5,1
-3.592795671,-3.554237058,-2.715625461,-3.154761366,-2.481548387,-1.305401386,1.67596197,33.5,732.25,-567.375,2
5.127667723,5.189366332,3.899600769,5.17100943,3.892295559,1.49530485,-3.335415323,34.0625,734.1875,-563.125,2
1.168811685,1.494556354,0.5779800327,-0.7484424964,-0.6915204519,0.9556877635,4.094054539,41.0625,719.9375,-586.625,2
-2.609337016,-3.017935053,-1.740937213,-0.6394893341,-0.6115674309,-1.234118365,-3.83906735,50.375,742.8125,-548.5,2
-0.8597142117,1.06412984,-0.7737830245,-0.6281422538,0.2032195681,-1.520338138,1.370128966,15,727.3125,-575.75,2
-0.157625767,-0.9542297538,0.3302116903,-0.7522051548,-0.08365073068,0.8494724694,0.5763280464,73.875,731.5625,-566.0625,2
2.162865902,3.39536619,2.692335781,3.726947652,3.598292026,1.516069355,2.20250981,10.5,768.25,-508.8125,2
-4.101314825,-5.985119109,-5.714579092,-5.795333042,-6.697414697,-3.321037426,-5.55805863,93.25,661.5625,-644.375,2
2.482515723,2.609783062,3.51973703,2.902854389,3.249792564,1.726386927,3.82146177,20.5,705.3125,-597.75,2
-1.660322688,-2.199070053,-1.671346484,-1.958565847,-2.651081919,0.01076869731,0.2700058358,4.375,703.0625,-605.5,2
1.215375369,3.074005347,1.010980074,0.175464488,2.070437265,0.876316531,-3.695801198,15.5,725.125,-576.8125,1
-0.6483159979,-5.242433588,-1.231471075,1.62684311,-1.26701297,-1.042023039,2.821860345,27.5625,717.125,-590.9375,1
1.75467525,6.590153163,2.71199327,1.306013472,3.567212371,1.55925221,0.3361599866,19.1875,715.1875,-592.375,1
-1.248556337,-2.689281292,-1.433283053,-2.27683344,-1.994936785,-1.837166456,-1.599482592,5.6875,729.8125,-575.8125,1
-1.296674002,-0.5772037611,-1.030969238,-0.1061125981,-0.9810309506,0.184391207,-0.7267910827,3.5625,731.8125,-572.0625,1
3.229331475,2.562668997,2.759579408,3.574528354,2.628791061,1.734756539,4.026079744,3.1875,734.625,-570.6875,1
0.2208854384,-1.1302762,1.161541931,-1.528748723,-1.684133118,1.111694709,-2.735208862,-30.4375,759.625,-529.5625,2
-3.677781078,-0.7686955274,-4.682929394,-2.454939716,-0.7587602428,-2.660096404,-2.69617935,-7.75,735.1875,-566.9375,2
3.197201351,2.40245636,3.096398389,3.517678696,2.474314952,0.8850428392,3.508156192,-22,749.375,-545.5,2
-2.616466423,-4.274586172,-3.90553595,-4.618909719,-5.082460179,-2.794166377,-3.705265836,32.9375,746.8125,-547.75,2
2.670675459,3.390017907,3.536544916,4.445929428,5.572876817,2.611352565,6.991287056,15.125,770.625,-512.75,2
-2.492188242,-2.999372738,-2.085489692,-3.498997351,-4.074037825,-0.005453050668,-6.947298927,98.1875,699,-606.1875,2
1.205941228,2.194011825,1.673232225,1.428543092,2.205876268,-0.3152171928,2.805306952,46.0625,738.0625,-552.0625,2
-0.7962103776,-2.389572706,-2.016702866,-1.557700971,-1.804776082,-0.6090050858,0.6082757036,16.125,721,-585.9375,2
1.580028251,2.507523953,1.072883653,2.414928659,1.312064002,-0.2377753518,-2.014857606,2.8125,739,-558.9375,2
1.344299462,1.647724426,2.45906961,0.1857941087,1.474545953,1.69830287,2.48075493,6.5625,731.5,-574.9375,2
-4.241680898,-3.657360462,-2.708112616,-2.490433306,-2.609219829,-0.907834209,-2.292181094,17.8125,739.25,-561.1875,2
4.965977313,4.443147152,0.504240055,3.574543778,4.866855598,-7.533285443,-2.927850843,13.25,750.75,-538.5,2
-9.662985947,-9.18380992,-3.257271639,-8.351428501,-11.85214735,6.43173059,-7.553179908,26.4375,724.375,-578.8125,2
9.188332321,9.207719352,4.376723605,10.07506777,10.28802682,0.2553677041,14.58339208,-0.125,739.875,-552.6875,2
-0.7720684524,-0.7139722816,-0.4302749344,-2.993433084,-0.8239868986,0.6106201197,-2.186788195,39.3125,705.75,-604.375,2
-0.7639320157,-1.958421756,-1.107947673,-0.1793834407,-2.124804223,-1.156480352,-1.307607558,4.375,733.3125,-564.5625,1
-3.099183901,-2.21798144,-0.344639279,-2.049139077,0.04784114889,-0.3011146327,-0.7719202008,17.5,736.3125,-564.6875,1
5.800418234,5.194506226,2.447428817,3.295985833,2.791184269,2.464032124,2.909020663,4.1875,735.125,-569.9375,1
-5.14807848,-3.911521886,-1.334942719,-1.535464958,-2.868788384,-0.1050874698,-1.340590676,3.125,741.625,-557.75,1
1.600686943,3.638329984,-0.699194154,0.4109407927,1.77685158,0.1473888548,2.571422048,1.4375,739.8125,-562.1875,1
0.1828783459,-7.326620671,1.144692556,-0.9994725993,-1.199294478,0.2949409119,-3.970119116,2.5,738.75,-561.5625,1
-1.621461295,7.198312949,-2.023389902,0.2160054958,0.256251368,-2.398586741,0.8417060445,2.9375,736.125,-565.875,1
1.120780184,-3.700706189,2.770396371,1.39148288,0.7344888611,2.40021434,1.714416726,3.625,739.4375,-562.75,1
0.03561623145,1.867344194,-2.440996195,-1.498718834,-0.2873470375,-1.292241079,-1.672948004,4.875,739.875,-560.9375,1
-0.8566735529,-4.261500413,-0.581771411,-2.649550482,-3.647700723,-1.298121081,0.073579937,4.3125,745.375,-552.875,2
3.544060394,8.122203103,4.301527674,6.93706592,7.000742069,3.867122744,2.068552249,-18.25,743.625,-555.125,2
-1.600235868,-5.886054392,-3.159945307,-6.287257477,-5.88356941,-2.803399731,-3.954412752,11.3125,744.75,-550.6875,2
-0.3426823226,2.706205275,2.863348515,3.970093795,4.100930873,2.010917245,5.204567942,-8.875,761.1875,-529.6875,2
-1.558079442,-3.642235568,-3.078608423,-2.747529696,-2.082583668,-1.861902098,-4.934546117,-12,750.25,-544.6875,2
2.838117693,4.848552945,1.414397921,2.848462672,1.313015538,1.687871689,5.438970513,6,718.4375,-585.5625,2
-1.953459131,-4.061519827,-0.8286146305,-2.848944684,-1.69818452,-1.74225725,-3.084920832,23.125,711.9375,-594.625,2
-0.8758757516,0.6202707422,-0.6612732058,0.5287711692,0.2009807407,-0.3061180102,-1.234959405,32.1875,722.75,-581.125,2
1.656321885,1.419793707,2.661709364,2.080404472,2.206469649,1.473930839,2.275742665,9.6875,717.0625,-589.4375,2
1.904577765,1.599261363,-0.564131388,-0.5435665711,-1.561519508,-0.1871423544,0.3037634723,42.25,708.4375,-598.25,2
-1.170637107,-0.8335191424,0.04118779719,2.458215842,3.4956548,1.502308584,-0.1268425861,20.875,740.6875,-554.125,1
-4.968045437,-5.485055154,-3.477626946,-5.873305351,-7.017359838,-3.950120993,-3.441946679,13.5,737.5,-563.5625,1
2.348064881,2.22854959,0.9398978661,1.406653788,2.400389632,1.163723258,1.302570747,9.4375,745.5625,-551.6875,1
1.589855528,2.723129085,1.773507909,1.539496798,1.102147377,0.9353945895,0.976804292,3.8125,748.125,-548.25,1
-0.01438847193,-0.3733226285,-0.9182355799,-1.011826046,-0.1788047973,-0.5038837259,0.1777353876,7.5625,729.875,-576.0625,1
0.3286492467,-1.065315359,0.5920180012,0.2892661273,0.136153496,0.08537094946,-0.6538825044,3.25,733.25,-571.75,1
-2.498431691,0.5936923622,-1.28769077,-0.40295597,-0.6621260971,0.3873843165,-0.488178299,1.4375,735.3125,-567.9375,1
4.359834879,1.807110265,3.601489674,3.267438345,2.219643922,0.49769878,1.985495611,2.1875,739.1875,-562.75,1
-5.122056594,-3.705388927,-4.948599705,-5.038691753,-3.670063925,-2.770556994,-2.590292979,1.8125,734.9375,-567.25,0
2.55775309,1.103029027,1.873172376,2.150742716,0.6088439816,1.875526131,1.260681345,10.0625,740.1875,-561.4375,0
-1.171582453,0.9778139659,0.8007399443,0.8407517978,1.316561514,0.02214228042,-0.118453567,25.25,761.4375,-525.4375,0
2.046052188,-0.09066927672,-0.165884875,-0.2900327504,0.2987257501,-0.3016449113,0.8150579385,2.5,759.0625,-532.4375,0
-0.9616794294,0.3280784966,-0.540572889,-0.008746734792,0.0001590342853,-0.5934170537,-1.934225836,-40.8125,783.5,-494.4375,0
2.953998622,0.6086190054,2.053147507,1.200726912,0.08460757101,1.987693413,1.778376099,4.75,760.3125,-531.5625,0
-3.29289827,-1.785258293,-1.690193897,-2.125817581,-0.09707095274,-1.278019393,-0.495099265,-17.4375,771.125,-516.125,0
5.130747667,4.012891422,3.321378861,2.405137455,1.031122487,2.350472484,3.0026952,-6.5625,791.4375,-483.25,0
-6.268415182,-3.273680768,-4.084840926,-2.322562336,-0.8992711451,-3.209563592,-3.302736975,-53.4375,780.0625,-500.75,0
2.815456434,-0.245265341,1.903554105,0.4575702912,0.4896145505,3.007311307,-0.3393507727,17.8125,762.8125,-525.5625,0
-2.088552774,-1.193096618,-0.6364532876,-0.1836933706,-1.188104578,-3.119968982,1.095927925,-50.75,769.5,-517.5625,0
3.080573938,4.127444552,1.372185018,1.910017691,2.211291222,2.631382121,0.1182988979,37.8125,790,-485.0625,0
-4.636858286,-7.46650465,-4.458997308,-4.342627425,-5.597044777,-3.49447819,0.3251072573,-39.75,787.375,-494.8125,0
0.9142489341,4.145072087,1.744100762,1.362177125,3.118081091,0.5326527561,-1.975335737,87.625,825.4375,-423.1875,0
-2.165816116,-2.465717099,-1.629164634,0.007798742058,-0.9493836666,-1.445989947,-1.503755435,14.8125,795.75,-483.8125,0
5.519050002,5.714631989,3.35582332,2.657424838,2.069310975,4.148258389,4.529215859,15.1875,787.6875,-487.375,0
-5.775551256,-5.495670818,-4.212740829,-3.360592374,-2.823846439,-4.756979949,-2.639054269,-5.6875,776.6875,-507.375,0
3.547404085,4.144100252,3.190900872,1.827007348,2.937172279,4.608928443,2.241879465,7.5625,751.75,-542.625,0
3.268246245,-0.01976424894,1.773673162,1.69447194,-0.05081770369,0.3265859914,-2.426646959,15.6875,770.0625,-519.875,0
-3.5824634,0.7834317264,-0.3823216514,-0.6909803569,0.8042702235,-0.9068367133,4.286036518,-17.0625,773.125,-511.5625,0
-0.3118878346,-3.601948213,-3.080996833,-2.865567092,-3.400703927,-2.904835905,-7.259400715,15.8125,764.3125,-526.5625,2
0.4647700796,1.994037692,2.555141835,3.982370368,3.410928403,2.849405414,5.98186234,-9.6875,780.75,-499.125,2
0.427781706,-1.112545693,-1.198967525,-3.072781915,-2.25468413,-0.9323803534,-3.528439254,10.6875,756.75,-536.125,2
-0.8061634485,-0.4216180092,1.445017067,1.508041753,0.6008391481,2.876257394,2.473700772,-18.6875,772.5,-512.0625,2
2.082072485,1.813321989,-0.4271389635,-0.699360286,0.8032979277,-2.164972886,0.02140818693,37,750.625,-540.625,2
-1.329012457,-0.6533939037,0.03135040937,1.102366923,-0.20246134,-0.6149961945,-0.2479348663,22.0625,780.25,-501.6875,2
-0.3884252393,-1.225251801,-1.179503516,-1.50089382,-1.849023229,0.04254596744,-4.092554336,21.4375,767.625,-521,2
-0.1601652713,1.02341221,0.6528368706,0.4993111297,2.467504799,-0.8469519992,6.430695368,40.25,747.5,-550.5625,2
-0.8567046668,-1.367502647,-1.223238407,-0.5662037976,-2.955499488,0.3214531482,-4.146242798,4.6875,764.375,-519.5,2
0.6792157144,0.5829457394,-0.009080466352,-1.072846046,0.3975564204,-0.1988845515,-0.4602267561,59.25,753.75,-540.6875,2
2.554908042,2.461752998,3.909376042,5.627640893,4.196816545,3.950319296,3.097831436,15.4375,775.375,-508.75,2
-1.983401675,-2.731586272,-2.742648046,-5.15835052,-3.849469748,-3.25920719,-4.147677949,37.5,745.5625,-553.25,2
-1.012423263,0.8886329013,-0.4084805222,0.9511926975,0.6024125281,0.6299226617,2.847086156,26.375,745.375,-547.6875,2
2.85574843,1.845326644,1.281379183,1.931330596,1.561127456,-1.373271742,-0.6131552331,4.625,742.375,-554.0625,2
-2.331890153,-2.747656415,-1.869581851,-2.318459918,-1.800435332,1.497909961,0.7397795953,38.25,734.75,-566.875,2
2.505955566,3.458455523,3.348510776,3.536242136,2.916041937,1.03661959,2.330203756,3.25,778.25,-507.8125,2
-4.713510228,-6.440819046,-5.296674194,-5.533270537,-4.807349149,-4.892523445,-7.964820094,25.4375,749.25,-541.6875,2
5.583974635,7.897978341,5.63278,5.559548727,4.655803101,6.628785608,9.380139158,30.9375,748.5625,-544.25,2
0.6610428278,-2.89510037,-0.5968742246,-1.034867784,-0.6222310188,-1.787629899,-3.588321738,43.75,742.3125,-556.375,2
-2.50583537,-0.2867312884,-1.416088604,-1.612435873,-1.666756486,-0.2642574241,0.6250920561,32.3125,749.5,-545.625,1
-2.254463849,-1.018243842,-1.855462022,-0.8669652515,-0.03671928816,-1.353663299,-2.245945161,32.375,728.9375,-575.375,1
1.236450216,-0.2205278141,0.8802557054,0.3470205179,0.2742333354,0.3564159197,0.6139132871,35.75,736.4375,-563.0625,1
-0.1953539321,0.6233984398,0.2207906809,1.216020164,0.5596194273,-0.0438178048,1.162526628,28.6875,747.5,-547.875,1
0.08414912862,0.03844406758,-0.59344539,-1.37299099,-0.5337460153,-0.4517616594,-1.405103945,26.6875,747,-549.5,1
1.281713237,-0.4197429436,0.6022107618,1.06896979,0.6302018308,0.206909033,0.6766391085,19.5,748.125,-547.9375,1
0.8809193297,1.439896872,1.369074322,0.2492658315,0.8382549362,1.035143656,0.7148981505,14.0625,746.4375,-548.75,1
-4.88733511,-3.704021566,-2.947885261,-2.29852387,-3.272456669,-2.121430331,-3.029212729,8.3125,735.0625,-570.0625,1
7.43524946,6.340675905,4.156629328,4.681293402,5.080064687,4.216564014,5.080826562,5.6875,738.25,-563.4375,1
-7.588663886,-7.345945588,-4.27477054,-5.517785947,-5.728575565,-5.229242409,-4.160361561,5.0625,740.8125,-560.9375,1
7.613877894,8.347986144,5.310707262,5.887450932,6.046781266,5.615641129,3.695384873,5.0625,741.1875,-559.4375,1
-4.296416519,-1.757642225,-3.645861915,-1.460483756,2.104619035,-5.52585491,4.767324104,3.625,741.125,-559.8125,1
0.1338724511,-5.105581937,2.506331035,-2.062783352,-6.405797853,5.868129318,-7.27704751,2.5,741.875,-560.125,1
-0.06571250812,2.565268943,-3.129518539,-0.3610541513,0.04881151614,-4.361621956,-0.1415731491,2.5,741.75,-560.9375,1
1.071183226,-1.635565144,2.595778614,0.9747337314,1.145161311,2.770450893,0.9235788415,2.5625,741.9375,-558.625,1
-2.500963735,2.954886202,-3.162923985,-0.8673269958,-0.3169879147,-4.37719914,-0.498319962,3.3125,743.75,-555.0625,1
2.271363428,-3.468654745,1.111661237,-0.06652180237,-0.7021818969,2.84047291,-0.8098583504,3.875,748.3125,-550.4375,1
-0.4138854565,3.613055865,1.218880193,1.750310586,1.383563623,0.009812032311,1.469334317,3.375,749.5625,-546.4375,1
-1.023586485,-4.225046406,-1.108407208,-2.884667025,-2.04060103,-0.3519328049,-1.513434357,1.25,749.4375,-547.125,1
-1.431487509,1.401085751,-0.5682261657,1.040294584,0.482682092,-0.5109844882,-0.3455799064,0.9375,748.8125,-550.125,1
1.864424591,1.201802866,1.105110364,0.9542759029,1.123000742,0.637671772,1.285652838,3.4375,748.625,-549.3125,1
0.1906988439,-0.2350076338,-1.02347013,-0.4141908916,0.7132630204,-0.6641713604,-1.167054887,5.875,749.9375,-545.5625,1
-2.589883485,-2.916636294,0.5582155534,-1.846314261,-3.614940462,0.9897696791,1.457787624,5.3125,747.5,-550.9375,1
3.764678544,4.986198867,1.611792403,3.857023707,4.662907272,0.5284367123,0.006689052712,9.1875,745.625,-552.3125,1
-0.2737530909,-1.906496726,-0.7282677173,-1.905304786,-1.906983603,0.3643264214,0.43508557,8.6875,748.6875,-546.5625,1
-2.598207671,-0.4697928149,-1.185701468,-0.3110618909,0.1550965193,-2.267070342,-0.5716416357,10.8125,751.3125,-541.875,1
2.263558684,0.1464592341,0.425922332,0.3992405572,-0.5664925138,1.138667778,0.1150959611,9.25,744.3125,-554.75,1
0.7206527236,3.071930914,0.4800943174,0.09170881499,0.4123709329,0.9766697563,-0.116453146,19.5625,754.25,-536.5625,2
-2.950028975,-3.90927099,0.3096043987,-0.2047786031,-0.2111696872,0.4007632297,-1.804013779,6.125,759.8125,-536.5625,2
1.623524336,0.212163157,-2.13667213,-1.722771967,-1.194991867,-3.38345894,2.431559603,15,753.75,-540,2
-0.8553874736,0.8022537296,2.115327005,1.948920919,2.008449865,2.938657785,-2.540543882,43.3125,741.125,-555,2
2.938032322,0.07674014534,-0.1218601802,-0.7186963846,-1.078955731,-1.448300716,1.215076462,33.375,753.9375,-537.5,2
-7.374128523,-4.093217491,-3.112405712,-0.7232071621,-1.299420804,-0.1605025404,0.2882652533,21.625,736.625,-561.3125,2
13.03314416,10.27252482,6.751854505,4.88000967,5.624708891,2.442098241,1.966881073,-9.875,778.25,-501.9375,2
-14.33675434,-10.32478209,-7.360538621,-5.936812099,-6.783556282,-4.2332895,-3.628384866,22.625,767.0625,-519.875,2
11.59088076,7.919073855,6.423138899,4.556602152,5.197561041,5.667573545,4.676348591,22.8125,757.4375,-534.8125,2
-8.585421846,-6.489545258,-6.917405378,-5.815315176,-5.265126462,-6.810780058,-6.365565119,74.4375,728.4375,-571.6875,2
5.227696727,3.477762107,4.948509195,4.600968319,4.861091385,4.757047715,4.674321038,31.25,739.125,-556.375,2
-4.216302574,-2.568776841,-1.99457577,-1.701399456,-2.818063359,-2.103063827,-2.510755704,33.4375,741.25,-556.3125,2
4.907537415,3.81503171,1.868395152,1.346164997,1.857405899,1.724485382,3.037561169,39.8125,773.8125,-508.5625,2
-6.87621374,-5.645745828,-4.123241687,-2.899658912,-3.616344588,-3.295758474,-4.819799823,51.0625,761.375,-522.875,1
12.61890282,9.494771457,8.440500629,6.872141826,7.30225995,5.251811868,6.738472354,18.1875,772.875,-507.875,1
-8.942072365,-7.529664309,-5.908112391,-5.161708184,-6.33842378,-3.630121331,-6.110271535,50.5625,756.6875,-534.875,1
1.569951943,2.470636733,0.9645782562,0.9144149657,2.128227592,1.190657939,4.333503816,8.875,754.8125,-532.125,1
-0.5874514649,0.4818916209,0.493897864,0.851250494,0.2565992256,0.8517985727,-3.710314348,35.625,735.125,-566,1
-0.6376276571,-2.063749054,-1.778103571,-2.100944128,-1.08397897,-2.677404288,3.308969798,32.75,732.1875,-570,1
-0.0175426894,-1.042938615,1.371892155,0.8950869832,0.2459899575,3.139545527,-1.096451322,22,736.875,-564.25,1
-0.480326711,1.595461805,-1.320413859,-0.9709778675,0.5623719218,-2.597706106,-0.5953074887,13.125,741.5,-559.125,1
-0.9013905368,-2.073787395,-0.8523942169,-0.2726145993,-2.227928995,-0.9381924089,-2.357648816,9.25,745.6875,-551.875,1
5.29074505,5.437243322,4.09904746,2.91198554,4.043286246,3.639891754,3.920889463,10.3125,743.0625,-555.5,1
-6.266114922,-5.362127316,-3.674507964,-2.840295836,-3.486414768,-2.587015287,-1.982113191,13.375,752.9375,-537.75,1
3.635158718,2.509459062,1.304758729,1.767128324,2.156817652,1.624376889,1.76572274,12.8125,749.9375,-546.0625,1
-0.8309109946,0.08845014726,-0.4161358781,-1.202217736,-2.202348632,-0.4017741928,-1.95526553,9.4375,749.75,-545.875,1
-0.9043577014,-1.890000924,-0.4896319551,-0.4402985834,1.521947425,-1.739818198,1.108315397,8.5625,750.375,-544.5,1
-0.6438194266,0.6472054468,-0.8708978664,0.1450346456,-1.166285603,-1.116022224,-1.096515085,6.1875,753.125,-539.5,1
1.710636332,0.4477096256,2.359288776,1.024663925,0.8146811019,3.245369159,1.198356209,6.4375,755.6875,-532.625,0
-2.23948207,-3.098699062,-3.375970332,-3.336427951,-2.732801523,-2.439610409,-2.243214366,7.3125,754.4375,-535.75,0
1.418367838,4.80081078,2.030678552,3.563833844,3.101591205,0.7579202118,0.8832080485,19.3125,764.9375,-521.8125,0
-0.4934224714,-3.395300391,0.3494382636,-1.082039124,-1.262551961,-0.2031459706,0.8923228868,14,777.3125,-508.375,0
2.098188323,4.279220117,0.3570755627,0.7655520832,1.274067804,1.199565786,1.607032002,-14.6875,761.875,-526.5,0
-0.7292597054,-3.072707447,0.6999106099,-0.7755011949,-0.08868356816,0.02327509686,-1.570582939,-10.4375,758.75,-533.8125,0
1.804518272,3.373447069,0.7145775457,2.432341973,1.814217674,2.716246737,2.432171059,-35.5625,761.875,-527.25,0
0.205357496,-2.659032141,0.9999933794,-1.692969559,-1.69546289,-1.705368852,-2.04497715,17.8125,784.0625,-491.9375,0
-3.173538101,-0.1636926107,-3.947412969,-0.9205435064,-1.594476909,-2.117816547,-1.63414798,-47,758.8125,-534.1875,0
2.441295197,1.218713131,4.089129372,2.285864031,2.594693871,3.862114202,3.753631964,17.6875,771,-514.5625,0
-3.24640012,-3.106361354,-3.883872085,-2.162907461,-2.130420372,-4.241218329,-4.15480617,11,759.4375,-532.3125,0
2.496090115,3.261558753,2.175725878,0.5949330731,0.5532845779,1.872679789,2.591807476,7.3125,782,-497.5625,0
-0.514634998,-2.819391699,-1.681162049,-0.1743119155,-0.7746909586,-2.978730193,-2.550361215,-39.3125,768.625,-523.1875,0
-0.01396355466,2.624851627,1.58314806,0.9796433916,1.50833187,3.11666511,-0.1266063929,-5.5625,774.5,-506.4375,0
-0.3959610094,1.237796605,-1.636829598,-0.1428650466,-1.323245656,-1.400614717,2.477579265,-19.4375,768.5,-521.0625,0
2.988919253,0.6177037465,2.078359083,1.368517074,3.152208741,1.25775191,0.2642729774,-30.4375,784.125,-496.125,0
-3.929372756,-5.543954522,-2.056359767,-1.735206378,-3.325715432,-0.8079605598,-1.142975724,6.3125,792.25,-488.875,0
4.737189272,8.243136642,2.394032368,2.123931028,4.363913423,-0.8217656537,0.5011679252,-21.3125,795.4375,-481.8125,0
3.903579921,-0.3713055004,3.731034031,1.796470836,-0.1452291844,4.862651537,1.957627945,36.6875,791.75,-478.625,0
-7.619676159,-3.94520995,-6.068044085,-4.400562101,-2.998092071,-5.199597894,-4.718175735,-16.625,760.8125,-535.3125,0
11.52038532,5.580279341,8.454346242,5.284137422,4.423774444,6.558524665,8.104123471,110.375,801.6875,-445.5625,0
-17.60103352,-11.18206985,-12.25618662,-9.344637163,-8.404296228,-8.715199263,-12.14851766,32.6875,790.25,-501.9375,0
11.99639068,8.181610129,7.632148,7.415473871,6.63144759,5.816126788,7.951816752,39.375,801.625,-467.25,0
-8.445617403,-4.950120946,-4.719968964,-4.045293481,-4.881310665,-4.381528511,-3.276819432,-10.5625,789.25,-494.625,0
3.31729332,1.53805427,2.06049847,-0.05274450312,1.680243304,2.171543131,1.671106399,44.6875,778.125,-497.125,0
-6.705857853,-4.602665757,-4.176562317,-2.049526403,-3.051353806,-3.501206912,-3.69437928,-3.375,771.5625,-519.5,0
4.785201943,2.368783888,3.335139653,2.808493449,2.339065746,3.19783561,3.615621536,-1.5,761.6875,-523.25,0
-3.075802308,-1.22577182,-1.760466347,-1.511466067,-1.357866478,-0.2955646171,-0.08227665195,-7.1875,738.625,-563.1875,1
4.715755591,1.219795613,1.575143118,0.7996967503,1.610264355,0.1560381581,-0.7670910808,-0.4375,723.4375,-586.75,1
4.012618322,6.329924326,2.981576451,3.331925571,3.254998961,1.343409744,2.997075502,-3.0625,716.375,-592.25,1
-5.900591311,-5.865628644,-3.122191463,-3.505371467,-4.067672719,-0.6770405601,-3.194210602,-3.5625,733.3125,-572.9375,1
-2.412576534,-2.613730364,-1.875870136,-1.844459535,-0.9267278331,-2.984313718,-0.7511737043,10.8125,750.1875,-542.5625,1
4.605438937,5.128828158,3.338418312,3.952675017,3.423127288,3.512222588,3.284615793,6.1875,746.5625,-552.875,1
-2.084871388,-2.380565897,-1.662530197,-2.427274561,-1.928352932,-1.612887638,-3.624555395,0,756.1875,-536.5,1
0.31455697,0.4018318405,-0.1722253424,0.3509390649,0.7175175703,-0.2068119109,3.104443244,3.3125,759.375,-529.4375,1
-2.525674266,-0.8414033861,-1.281813838,0.1820705373,-2.150835324,-1.977580269,-2.258173257,19.875,742.1875,-559.9375,1
10.5513686,6.001850672,9.235763498,4.213063518,5.729989211,11.99791816,5.321433839,11.625,747.625,-548.75,1
-4.855786555,-0.5597331877,-4.953856332,0.929114827,0.2869870238,-10.23600959,-3.09807876,24.5,757.25,-532.5625,1
-6.520380897,-7.588611646,-6.60422104,-8.6719068,-7.274830233,-2.65700733,-15.72002395,21.25,749.75,-545.375,1
7.603808338,7.543626478,7.082129339,7.426443091,6.223386721,3.90774349,8.670555511,27.5625,754.5,-535.875,1
-3.539639225,-2.052844375,-2.255951101,-3.94637438,-3.325296575,0.4977659539,38.79403416,40.625,756.0625,-534.5,1
4.670134582,-5.758719013,6.674186469,6.398636359,4.42577055,6.52375604,-56.27953892,40.25,751.75,-542.4375,1
-9.01396674,5.002768397,-13.01308023,-10.64019575,-6.305801183,-13.43630068,13.39400563,29.625,760.375,-525.4375,1
11.42488535,4.777293449,10.64256866,9.607142997,5.883870441,8.360152761,10.50062889,14,760.125,-530.5625,1
-8.608634256,-9.652412176,-4.13375309,-4.362942995,-3.350334388,-0.6340493861,1.803144376,8.375,763.5,-525.0625,1
6.410055377,8.613986838,2.103471786,2.370434825,2.194944379,0.3926352497,-0.1394262969,7.5,770.125,-516.25,1
-5.923835029,-6.212308654,-3.228701401,-3.530783492,-2.771485465,-2.439789991,-2.662852384,10.125,765.1875,-523.3125,1
1.078986705,2.373854662,-0.005658429779,0.9798920263,0.6451136226,0.4043153608,0.06715205273,4.25,754.0625,-538.25,1
4.047301499,2.492113952,4.213992472,2.346301303,2.475997367,1.080213673,2.96285517,1.6875,751.625,-544.5625,1
-4.521314619,-3.298112429,-5.014607622,-2.9998841,-3.614836128,-2.789564602,-2.817775215,0.1875,755.0625,-535.9375,1
0.3504910622,0.2433582962,1.551055722,-0.1767531597,0.7317764944,2.350772009,1.287334046,0.5,758.4375,-531.75,1
4.970135532,2.740646161,2.306346641,4.104272432,2.743516233,1.372121665,0.1912420567,1.0625,759.5,-531.0625,1
-6.104330849,-4.522177502,-2.285692769,-4.259449544,-3.087094358,-1.230219249,-1.022282889,6,759.1875,-531,1
1.457951383,2.221002105,-0.6083415779,0.7615678338,0.6500032317,-1.068329507,0.2356230827,7.0625,758.5,-531.875,1
-0.2759655819,-0.77398126,1.222945636,0.8205231304,0.4536814156,1.507544746,0.9407671535,3.5,755.5,-537.125,1
0.5592825921,0.6462858479,0.1810150212,-0.01895814118,-0.2483745575,0.3970524164,-1.081305983,1.875,754.625,-535.875,1
-1.682948003,-0.4269250312,-0.6035989305,-0.4058761062,0.1812909043,-1.781788066,1.157880162,0.875,758.125,-532.0625,2
6.354574121,2.243278853,2.941535778,2.565390024,2.112700406,3.280509132,1.936975337,19.875,760.5625,-529.8125,2
-9.840913321,-6.120940349,-7.344803234,-5.881902144,-5.382297196,-6.737092752,-8.369741416,75.75,721.875,-583.3125,2
8.226862848,7.263112559,7.918382648,6.074693278,6.243960751,6.187640783,13.41048015,-8.125,788.8125,-475.375,2
-1.160148582,-0.6668230938,-4.667204031,-2.610079725,-2.343694445,-2.9083812,-11.00164774,55,728.3125,-574.9375,2
-1.756185774,-4.278873988,2.109128552,0.825968292,0.03770415238,0.9129210589,5.497968117,-21.8125,770.625,-504.25,2
0.2069988283,1.807163762,-0.3682405746,-0.3742571477,-0.61074503,0.6760892826,-2.196936803,0.875,768.4375,-529.8125,2
-6.377510872,-5.138284704,-5.347919677,-5.258663479,-4.770910509,-4.976520235,-4.406266639,-19,782.5,-492.125,2
8.397008064,6.28233786,5.715923929,6.044837389,5.689215194,4.951965048,5.563489073,3.1875,739.25,-565.875,2
-3.836903246,-2.814925531,-1.977603223,-2.077613952,-2.246201816,-0.4462562045,-2.827171307,31.5625,705.4375,-600.75,2
3.617593597,3.536040191,2.891899708,2.115003743,2.545791764,-0.3410633656,3.125197965,22.3125,722.5625,-579.8125,2
-3.135498379,-3.715749901,-3.894181834,-3.150423459,-2.922629594,-2.026130128,-5.241630795,26,752.125,-547.75,2
-2.487188073,-1.29855574,-0.2523406623,0.4387658095,0.400989321,-0.617337354,4.883025587,18.0625,785.3125,-489.875,2
3.863823514,2.790116727,2.932318774,1.066842483,1.091289192,3.165852697,-3.811217712,18.125,746.625,-556.5625,2
-0.05027245447,-0.07968623028,0.5537100945,2.3082051,2.154853828,1.092892004,5.633189467,7.5,743.875,-541.625,2
3.395163213,3.33021405,-0.929324257,-1.721751427,-2.546081232,-2.0235397,-4.956650251,32.4375,700.8125,-613.5625,2
-5.893544271,-4.760452494,-0.4404608534,-0.07022714166,1.887560886,1.24486641,4.408979348,71.5,725,-573.6875,2
6.040606111,4.8053646,0.9696458998,0.6862850478,-1.076068931,-0.7167375167,-3.438151233,63.4375,744.8125,-552.4375,2
-9.192474282,-5.938639905,-3.38157763,-2.317851833,-1.94278243,-0.922143841,-3.100396022,31.0625,743.1875,-548.3125,2
14.50705359,11.16764313,7.477123445,5.745277757,7.70513652,3.154732358,11.5115068,33.5625,730.0625,-569.3125,0
-11.89000843,-10.81757744,-6.001914872,-5.648636681,-8.578023409,-5.004785475,-12.28865122,33.75,767.875,-515.625,0
-0.0797615929,0.0891319137,-0.7121647886,-0.1725020918,1.400597886,1.323907202,3.980110183,78.1875,749.5625,-535.25,0
-0.5401364038,0.9884950605,-1.52979016,0.3910707251,-0.2757198487,-0.837166132,0.8960454504,54.375,771.0625,-516.625,0
6.195908983,3.059897759,6.354388166,2.942789899,3.183044774,4.27441286,2.764537217,5.6875,737.3125,-564.1875,0
-3.216834301,-2.397758008,-3.347140344,-2.84102044,-2.393170701,-2.873996625,-5.69822504,70.125,771.4375,-502.25,0
-0.9014292434,1.477052735,-0.3345000746,1.013839742,0.6873407569,0.5377346877,3.206687895,4.5,746.1875,-558.9375,0
4.313899581,2.713913395,3.466026189,2.097976636,1.626182349,2.440911724,1.464760699,27.5,782.1875,-493.6875,0
-6.366078535,-6.835149306,-6.188642482,-4.848099464,-4.490205588,-5.305264619,-4.413335593,-28,784.9375,-500.9375,0
0.1789593151,4.013125774,2.074068453,2.027885396,2.853682538,2.619633003,2.370247214,24.5,788.25,-487.625,0
3.397773675,0.1278028948,1.407221199,2.799698873,0.8957742016,0.401979693,1.182176876,14.25,762.625,-529.75,0
-4.595484685,-4.848514012,-2.637737878,-5.211794711,-3.459723275,-1.874358599,-2.224744696,17.625,761.375,-525.25,0
8.349682632,7.065481866,3.711504612,5.104506789,3.459789393,3.596326363,0.851298443,37.0625,732.1875,-568.0625,0
-4.96592207,-2.452959425,-1.283952805,-2.632471242,-1.074619073,-3.051885848,-1.352925415,10.4375,750.125,-545.5625,0
2.076733759,-2.630388271,1.143283438,0.5043710202,-1.792411068,1.564437162,0.1382214217,-10.625,738.75,-560.1875,0
-0.7583751142,2.844196657,-2.442887501,-1.190382957,1.428119057,-0.6492344272,2.445324945,-8.625,748.125,-546.875,0
-0.9591982307,-2.024778667,1.156609927,1.091203259,-0.04643161789,-0.4184334118,-2.138294678,95.875,787.5625,-481.25,0
1.912661338,5.731063519,-0.127762619,0.9707930858,1.898272991,1.128807414,2.392043597,30.1875,778,-507.25,0
-1.517003251,-5.761511416,1.505439693,-0.6946754721,-1.659386098,-0.7170156058,-2.164897451,20.9375,780.6875,-500,0
0.2292562896,1.539805064,-2.394633774,0.0005797073309,0.08041772712,-0.709399353,1.01341211,19.125,764.875,-529.4375,0
0.8114668591,0.3874171176,2.624477946,1.060276741,2.245108207,3.359942356,2.302468125,-8.9375,759.6875,-531.125,2
-4.317894667,-3.879579202,-3.793110073,-3.5009611,-4.668879494,-4.681912456,-4.067213679,16.625,775.4375,-508.625,2
5.756241007,7.819858098,4.171864752,4.821047117,5.022165697,3.657985433,5.101031718,-6.75,790.875,-488.5625,2
1.080713373,-2.915585102,-1.203564531,-2.210047059,-2.113577439,-0.5283550324,-3.712585185,99.25,735.8125,-561,2
