label,F3,F4,C3,Cz,C4,P3,P4,accX,accY,accZ
N,8840.93251875123,8901.215575896470,8031.820092580110,7568.519630474390,7798.356917468590,8839.839831916080,6604.397614445740,18.4375,808.8125,-459.5625
N,-839.2820687938290,-857.5820283921210,-672.106044875558,-635.0454402414900,-651.8559491420320,-837.5351820809730,-552.4447906669920,16.0,809.625,-456.6875
N,-562.3543827543510,-568.6960043262550,-496.9543398894270,-464.72841049048300,-482.4058034204190,-564.2880801808190,-405.34887350863100,14.1875,811.625,-455.25
N,100.66307374292900,103.22295241147600,86.14175543557370,77.13184293640590,82.49297457735970,102.4154371014430,65.23983284991800,16.9375,811.625,-452.875
N,3.0970982711571400,2.280203230234240,0.8310611874992540,3.317542598542410,2.6615474010178600,2.1235730875401200,3.2941209846245300,14.4375,806.625,-462.625
N,-2.422739520813600,-0.9577539127364820,0.030344400823239800,-0.727899333211501,-1.090583506924150,-0.5824165303027720,1.2160162774498800,12.875,808.0625,-459.0
N,-0.007042636577671720,0.42256834322347400,-1.4169967682034400,-0.980679621522147,-0.8579341612387380,-0.41520796288422200,0.982324278273547,11.625,808.875,-460.3125
N,1.288425926686150,-0.1086410074387390,2.6169917177659100,1.1698255943340500,1.7014949752697700,0.9567532727113750,-2.9857239734054200,12.4375,810.4375,-455.375
N,-1.5719506089548700,-1.0293895800721000,-2.1332009592860200,-0.7477599462939970,-2.0349835703681400,-2.1272776160126400,-0.7034570762805470,15.9375,812.0,-452.5625
N,4.316183279496910,3.4044628048199800,1.5377659886354200,1.1848494217299300,2.0696145449159500,2.2080077804278900,1.081268557135330,16.5625,813.1875,-450.875
R,-2.8442369792873400,-1.8419449734019600,-0.4470626706180780,-1.3899906066671400,0.20262658807932300,-1.6274554388848000,1.5133153712751100,16.625,808.625,-457.875
R,-2.925553922037470,-2.4804612889905500,-3.2568704353773200,-2.4213727412219400,-5.6982669500122300,-0.3166991526941160,-5.608463279741090,16.25,809.0625,-460.3125
N,2.5336343226916300,0.8643683638035960,4.02219885712076,2.3459247806773400,5.008504622283770,0.8863008262427880,3.3040853766031600,21.5,805.125,-465.25
N,0.019557831783540200,0.2628185426533410,-3.3028491189380000,-0.24307823842823500,-1.626653242287930,-1.0303764158156000,0.964002291999303,23.5625,799.375,-474.125
L,0.3485119104260280,1.6155662022808500,2.359874703095200,1.427893770459320,1.845339158668390,0.7195186654937180,1.810083279918170,13.3125,802.3125,-470.125
L,-2.0079512462518000,-2.364272193455630,-1.3102900074018800,-2.514014519332380,-2.3380280303327700,-0.24198597170137600,-4.244996238031790,18.75,806.8125,-463.0
L,1.02072098583103,1.4504120765798500,-0.7056411727632540,2.07440415534958,0.9303960913350560,0.5968333500075970,5.6441906047345800,10.4375,805.5,-464.625
N,0.8517560465462350,0.9208303948914450,2.3124619767500600,-0.0007687593508323970,1.3624420248917200,-0.7939091013018590,-4.768113678641020,10.5625,794.0,-479.375
N,-0.4477527949087770,-2.0105895410536500,-1.3540173800303100,-1.5932107232839300,-1.8572648522862400,0.12751686184580300,0.5358732071703540,6.9375,790.5,-488.625
N,1.9456162781434300,3.1347195528953800,2.0405740502154700,2.908006245846920,2.090515050779240,1.574192641999980,3.353080310305020,7.625,787.4375,-489.75
R,-6.387471849568750,-7.554684671518010,-4.2946368434612900,-5.16404433661048,-5.1574309924639100,-3.02897061018846,-5.379580463313330,2.0,785.375,-492.5
R,8.34952738852095,9.749132947814930,4.385650069961810,6.606491294379760,7.908261371007320,2.950285796637410,5.5069947733226300,4.125,780.75,-501.3125
R,-0.8199414644945840,-2.4988896288833300,1.102324305521190,-0.9544721562640970,-2.987797358633750,1.5244354275982800,-2.0193605021770600,-0.4375,773.5625,-503.75
R,-2.677081698594880,-0.8815568474389840,-2.016111185791690,-1.8119409893883100,-0.5654430204615110,-2.2408258311444400,-0.6166724150862360,5.0,776.9375,-500.625
R,-0.36339320342150500,-0.4510437046562270,-1.5332935654675100,-1.0087613685434600,-0.21649570912521500,-0.8185845081354360,-0.03060924588370700,8.625,788.375,-486.75
R,0.05866116739598400,-0.19414806777637000,0.17339805402083900,0.8539254624684990,0.3749359784088020,1.0506146967947400,-0.4407697777204510,9.4375,785.625,-492.8125
R,-0.5271267513603570,-0.7630093135741000,-0.13690383418078600,-1.760336209127810,-2.3303600155870600,-0.46989624179966400,1.0970255161199600,8.1875,776.375,-501.3125
R,-0.5678806111917170,0.08577605102106210,-0.4607252917911230,1.0848462462023500,1.1825239193579400,-2.289137346700400,-3.191349652645670,3.6875,782.0,-497.125
N,0.40329191674320700,-0.8655948615310350,-0.0010087417668686100,-0.7970651811792190,-0.8882812150745600,2.1135053696828400,4.749528798406380,6.8125,777.0625,-500.0625
N,0.8747136919535200,1.5638983294436100,1.2896532189675400,1.2708181849653600,2.265240450832840,-1.2399082822860800,-0.6486723104207900,0.8125,782.6875,-497.625
N,-0.610920745417649,-0.3193403476475410,-0.942079914154732,-0.4104103647727580,-1.1625256221767800,1.1743359278814300,-0.07213710123358400,0.375,785.3125,-493.625
N,-0.9204675754570270,-1.9214495728453600,-0.5353981719210880,-1.083570951247970,-1.0099545366481500,-0.44307323798650700,-3.46499595763621,0.5625,788.375,-489.1875
N,1.7591496370220500,2.861958203988530,3.1186425946449300,3.0138909469210000,1.9239200271288000,1.1022058943699400,1.3491532650950500,3.8125,785.5625,-492.375
L,0.09749822095033600,-0.3406305682304630,-1.6578280047652000,-2.0461990668286400,-1.2536874566747900,-0.4133808875552980,2.9768730580396000,10.0625,782.6875,-494.6875
L,-2.7067211114772200,-2.3483896181407100,-3.597475960845430,-2.636467087007150,-0.8901600915906820,-2.374487748584630,-5.56061994978883,11.3125,784.75,-493.5
L,5.07863363022747,3.396222813718930,6.040098963060240,3.866928960665500,2.1488143835606500,3.0856558309949200,4.580264432536150,17.6875,794.5625,-477.6875
L,-5.336812540567900,-3.488778351479120,-4.255913682613550,-2.2180179582208400,-2.6533843814680700,-2.3855672755714400,-2.1882590443115900,-0.25,782.375,-494.5625
L,4.104877196536010,3.030392325943270,2.777140164479900,2.0244257286619600,4.585056800058800,2.49155330787663,-0.9283224302936720,1.875,775.25,-505.5625
L,-4.544857849626200,-4.290193730600520,-1.7422450517351300,-3.1730957507302400,-6.019741800157670,-3.2480467837118200,0.40790041158699200,5.9375,791.75,-485.125
L,2.002129286442360,2.464537354572430,-0.5052226094289560,2.728576671377320,3.5487950072572800,3.401472869554630,3.6315776262200300,15.0,807.4375,-459.875
N,-0.8447275118086780,-1.2814438138124400,0.2528012655493930,-1.0937506615478000,-1.3656204600220300,-3.019267728596390,-6.62618502753671,13.8125,777.875,-502.625
N,3.086985613787710,2.8581808835113900,0.7333386481403150,0.266320754428277,1.413458198648880,1.4990361479203000,5.388545144636840,14.3125,780.625,-497.8125
N,-3.5749737528568000,-3.5935998372125400,-1.3180166912849400,-0.9908099401761460,-2.273229662960160,-0.15670163271161200,-1.9557183791266800,7.4375,803.875,-467.25
N,2.080964433972410,2.5053346545383700,4.43725871020766,1.1180509173488100,0.7802550350462660,-0.24732008385903800,-0.7688335617856580,15.3125,797.875,-476.6875
N,-0.09252909516570000,-0.4291119023262950,-15.754776232836400,0.11649371220697400,1.068701094987150,0.47647360023999300,0.5580683855920470,10.1875,787.625,-488.25
N,-0.7069798044025620,-0.13030026361971200,18.261385578782700,0.9352309618033480,0.2499305196948730,0.5761657078204500,4.67881592120778,6.8125,782.875,-496.3125
R,1.6671080789653100,1.1497181567048700,-4.699882728402490,0.0521695837330999,0.3823305360399970,0.8962915215649310,-4.574335067812140,10.3125,782.625,-496.8125
R,-2.146251156356790,-2.5164179070176000,-2.6787399194313300,-2.977594001053380,-2.691877373421120,-1.713273535242760,0.17835990981990800,16.3125,787.4375,-489.6875
R,3.217211160519700,4.985954342253760,0.868556500618799,3.8045588221871000,4.210037831610150,-0.1739132542838690,0.10625032997448400,18.0,795.25,-479.625
R,-0.7657139734524670,-2.9917117012502200,1.9113577543585400,-0.7897779289726300,-2.5148175543191200,-0.6158877969152280,-1.211390133965060,11.3125,789.4375,-487.9375
R,-0.9102201560029,0.1890466119639420,-1.876948880510440,-1.4410726048593200,-0.9128855442185080,-0.31686176388032000,1.931869053123360,7.3125,785.5625,-492.6875
R,0.09073767602902290,-2.427253609292280,0.8468046006221370,-0.11972070351804200,2.6970006390497600,1.3732070358290300,-2.110184295616720,7.625,779.5625,-497.6875
R,0.7933251700980510,1.9711864958959900,1.259970710750960,1.9749236893702600,-4.123339566835710,0.8670115059166540,1.8438820583620100,14.375,772.0625,-505.0
R,-1.613908152792290,0.3111938556649490,-2.368535375570720,-1.373654131879930,4.705592397834440,-0.5088993245526720,2.0843923504484000,13.0,778.625,-499.25
R,0.001818503047631570,0.5627270945253650,1.7634877059027400,0.3814661722641640,-1.6888969950054600,0.08231124781531320,0.8956318660857680,14.9375,779.125,-497.625
R,1.403149951046090,-1.1596772104098900,0.5096937199178380,0.37799378068485200,-1.8035921865012700,0.6415040645634390,-3.2370998396047800,10.6875,780.125,-497.0625
N,-1.003078585825270,0.08209857633983710,-2.1724543207874200,-1.656771633415080,1.0495556930979100,-2.0694824722258900,-1.7543305132287800,23.25,779.25,-498.75
N,0.43908884046678300,1.2183776049139800,1.5392092929206500,1.76994699021197,0.4061442031406310,0.7238200944597830,2.2625244646366200,14.125,780.875,-496.5
N,-0.9645463868986840,-1.4991093336051700,-1.3484822084806300,-1.7130078623711100,0.506440425206152,0.2345496359067410,0.48977941159750500,12.75,782.625,-497.1875
N,1.1021451341864400,1.0620263044538600,1.5189258760989400,2.0077315169173100,-1.107994622945030,0.8123692250416610,-1.1675471985053300,11.9375,781.875,-495.0625
N,-0.21021217413046200,-0.46100907504050200,-1.1885963539021600,-0.9420487914758110,0.347291837336772,-0.6782091799944040,1.771454312185950,13.5625,780.4375,-496.3125
N,-0.5893446939138230,0.5906932251588240,-0.28207061195231300,0.1392600363658270,0.5004667762160180,0.09485625785150140,-3.0620368516293000,13.375,777.5625,-500.875
R,0.879022245084647,-1.068132981140080,0.936189480453339,-0.6840890235278420,-0.45877811686548100,-0.11775088753373800,1.0608534846294500,10.8125,783.625,-493.1875
R,-0.07575267222573730,0.7521478151456000,0.23429580664461500,1.6437358607260100,0.6777289702769980,-0.0034753853191596100,4.6707186045524100,7.8125,785.0,-491.9375
R,1.8743951053228800,1.3508883750031600,2.530079892510170,1.346848285482270,0.6379185927268710,2.101727354970230,-4.7281821107551200,-9.75,782.625,-495.8125
R,-18.686914444706300,-7.580710818091250,-16.020295628248900,-11.682416199401700,-6.332353367492870,-9.074286293047960,-3.636389756813090,9.9375,775.875,-504.5
R,25.054718098855700,6.883452275413740,18.075080966631300,10.205193162885000,6.502513876813250,6.945281269044460,4.50474094269791,25.0625,781.8125,-495.0
R,-8.809955659827960,-1.812441226295730,-6.052547788193290,-0.3782030869789560,-1.196147246323880,0.21119427661924500,-0.597600787183061,32.625,778.6875,-496.375
R,-3.5583589032396600,-2.3706336684211300,-1.707398715894930,-1.9258237693715600,-2.2474119514146100,-2.1760706923603300,-0.7722334270394660,15.9375,776.5,-500.9375
R,4.555840647355290,2.590453755147830,1.6197689847055400,0.1768418126027980,2.746443566497470,1.6163898725835900,1.5832845349997800,23.9375,781.0625,-494.8125
R,-2.8581218256764200,-1.5032955030116200,-1.3957658353829700,-0.596893450880603,-3.465020901370780,-0.9390922348654870,-3.641406541759330,28.125,779.625,-497.125
R,9.020963519678140,5.475468868035260,6.316124671525640,4.612637680466090,6.497544055370070,6.075545282129510,1.5039199497935500,16.75,789.875,-484.125
R,-9.018949374766290,-4.39434839760138,-4.96278165308004,-3.8558158898715200,-3.512794188791480,-5.663501495270440,1.839527744901260,16.3125,796.5,-479.0625
R,1.0887455519782500,-0.10117316188952600,0.7868095257074140,0.4748276841698480,-2.654299314071420,0.18379221512484500,-0.02286224140644910,22.5,800.4375,-468.1875
R,3.3713883894230300,3.3143261377415300,0.9156431597952260,0.7460934703439290,4.734293161290740,1.7997168186717800,0.16921619276466300,16.1875,786.0625,-492.125
R,-2.7064175409261700,-1.9389809085355900,0.7653963318858830,0.024746909674180600,-1.6834610937471400,-2.038897693649610,-2.0537397183954500,14.0625,789.0625,-487.4375
R,2.632477610972200,-0.7176664009171880,-1.8082918818428900,-0.1917904976428300,-1.7821098502576200,-0.1831641719378300,1.9407955100840200,13.8125,798.0,-476.375
N,-2.9956592743341300,1.2775828737844100,0.5684801075265020,0.07752727485817600,1.8519280996310400,0.38177507653198400,-1.2980142466002000,22.875,787.875,-487.5
N,-0.08206486795541240,-1.1566343180390000,0.353481056632749,-0.29954196269342900,0.10102468218354800,1.3675593812313400,1.0673983288388700,20.6875,775.5625,-501.5625
N,0.4486137581681900,-0.13555185097264300,-1.0193987120560900,-0.19890632325577200,-2.445494075552960,-1.0833579677076300,-0.3851118570926830,11.9375,775.4375,-502.875
N,3.3521570709856500,-0.008722705776109630,0.31522220407517100,0.15300393963185500,1.8314195947614300,0.4044537909652190,0.4165054372285680,14.6875,780.875,-497.9375
N,-6.813831880056390,-0.8987904333359390,-1.417858830997520,-1.3066489770470200,-0.8353827639739250,-0.511614183105215,-1.61025223472893,13.5,783.9375,-493.875
N,4.973593854726520,1.8942503948263900,1.457907283345620,1.8064644561278300,0.7921900060375570,-0.48726715467847900,3.2331395291205100,13.4375,785.125,-492.3125
N,-2.632925091553240,-2.299478159781550,-0.32736088655530700,-1.1058916104236400,-0.5981864529118080,1.1398989514353600,-2.5622758220147500,15.5,786.4375,-491.5
N,0.7262044670728240,0.298352232133906,-0.04167399226523330,-0.5587513177385730,-0.876842544202268,-0.769118701348681,-2.0521483245622900,15.25,785.0625,-492.625
N,1.7058584494534300,1.320091451296430,0.3109431376165190,0.7248797800450260,0.7258336082180050,0.08498216233014660,3.776936533950420,17.1875,787.3125,-490.125
R,-0.31638985740616200,-0.12568277894247600,-0.10354536654220900,0.9869558706614330,1.6726820893402500,1.1598454165015700,0.8304652322458910,17.75,786.875,-488.625
R,-0.0712070342442189,-0.0017272199505405300,0.07635308975537670,-2.2390242526494300,-2.2980096638795900,-0.427542882821381,-2.320347013883840,19.4375,786.375,-490.5
R,0.006855823678437110,1.3196033763323000,0.40706232161185000,2.6297591716974500,3.4336339395977300,-0.9331699368277780,-0.8778443256885120,27.4375,784.125,-492.75
R,3.0147507951943500,0.7351594012342890,2.077894826157660,1.0306573774539700,-0.9303760944017530,4.130192774087030,1.396475785695610,23.875,782.75,-494.1875
R,-6.182677797540070,-2.8279391072197300,-3.7711992427680400,-3.0252349280743900,-3.1689622056529300,-5.462497352628740,0.6141385400286910,20.25,777.125,-501.0
R,2.525428931258300,2.703550345357480,1.836995553859950,1.5602119236497400,4.712252054417920,1.8032920298027600,4.07996024574807,25.875,778.125,-498.125
R,-0.9445058414345800,-2.419563016579360,-1.1801375642123700,-0.2890127360043620,-4.930915786920190,1.4454738530098800,-6.504440615336840,30.8125,785.75,-490.5625
R,2.7151961889370900,1.210357606073540,1.9015147960811800,-0.8417532263952900,2.1779218124370400,-1.7523401703583700,2.0446131888257100,30.3125,781.625,-493.125
R,-1.9340822926977600,0.9365322285826390,-0.4167747561635070,1.7374529344329600,1.7958952923689200,1.575468077696060,3.167706230392680,25.6875,783.25,-493.0
R,-0.5809052550115940,-4.018596814634860,-3.3405690586119300,-3.3943450943561700,-5.80785871929237,-4.300288176991270,-7.48007988094296,27.3125,786.0,-490.25
N,1.9205607891368400,3.2477715162528600,4.8528101111110400,2.8492035508098400,5.168753276399280,4.933745366409270,5.0880865955737800,34.25,778.5625,-498.0
N,3.78620309918134,5.389487136646,1.0016552800615200,3.1116924282369000,3.839461936881770,0.19945377267041100,3.8632710458524400,36.8125,772.875,-504.5
N,-5.609889228304770,-6.9748157525074800,-4.0373105695875900,-4.533451197448900,-6.411410020800220,-3.450094674566230,-6.985087188533100,31.5625,776.75,-499.9375
N,-2.8565055671910000,-2.4739898801256200,-2.440003709070740,-2.190408431823810,-0.275972450552083,0.43985942095699500,4.176053916547730,26.6875,785.9375,-489.8125
N,1.4447494496963700,3.1601902966249,3.3191054089017900,3.077619112934640,1.0884559381473500,0.7791615884032750,-1.638661276547450,33.0,790.3125,-483.4375
N,5.371321441662720,5.0587075282828900,1.984527492719900,2.044589361831640,3.996916396359360,0.8791031117445740,2.310003535730880,31.4375,794.125,-480.625
N,-5.27938746645231,-6.029295623350460,-3.0209759273436700,-3.0711176117566900,-4.295218963463460,-1.2332828877088700,-4.677318454607090,33.125,788.6875,-486.3125
N,1.8357000398932300,0.5430515546952520,1.1023812813333400,0.16982808839344100,0.42649996171570800,1.3782753740521400,3.55217553953027,38.625,795.625,-479.0625
L,-2.0864834116447900,-1.258665198024960,-2.05291856818669,-0.8095953962611790,-0.9797734583121220,-1.7249614921536600,-1.9276628239007600,31.6875,786.625,-490.4375
L,1.705516546951270,2.5545105220427600,2.047254906685130,2.833445739801860,2.2554372206547100,0.34730396956962900,2.0589439889160600,28.8125,781.9375,-495.625
L,-0.09952108361244810,-1.493059518747650,-1.5714472483072300,-3.0770437925501700,-2.8858966819938800,0.6124470165428640,-5.700859290025370,22.3125,788.5625,-487.9375
L,3.541272107601040,3.098939585898520,2.98879313354288,4.144403438047560,4.249425246878710,0.9934965080333210,7.360502297240170,27.25,798.5,-473.25
L,-4.484389005283920,-2.7413715778986900,-0.6724612446089290,-2.450259581544900,-2.878508509473450,-0.16077985164858300,-2.622620032583800,4.0625,773.8125,-508.8125
L,2.388938212856300,0.5608037029583830,-2.28198782674672,-0.03487484353108700,0.489997759829173,-2.189154769508130,-3.7334228391774000,1.0625,773.25,-503.375
L,1.8080903108136500,1.5943471949128800,2.914990788590460,1.4103081624579100,1.573173910114240,2.807322417167250,5.872017720576970,13.8125,779.5625,-500.5625
L,-4.3368646422540100,-2.6189326492333500,-2.509650514129410,-1.5123233420717200,-2.797663818650590,-2.1621860657415600,-1.2806258745567600,19.8125,793.25,-482.6875
L,4.65973601767123,1.4220767834901800,1.9403618124795600,0.48581508669400900,2.2039215581293300,0.5274402027582130,-5.148828638105340,20.6875,791.0625,-484.625
L,-4.203833448548490,-1.094324697056810,-1.2642080271251900,-0.1519857802092640,-0.6197021520201740,-0.0684934842258649,3.0173874580763700,40.1875,789.5,-484.375
L,-0.5581817613679960,0.08757848293950760,-0.7719224720999420,-1.7608514533943300,-1.0206275603904100,-1.2525736883428900,2.0483309925779000,36.8125,798.1875,-474.6875
L,-0.8788417809218510,-2.1739679389788000,-1.4741543357177100,0.4195532500150610,-1.6773462415093500,-0.6096339350355440,-5.161691335885490,25.8125,802.75,-469.375
L,3.5663954981270700,4.3760245585173900,3.896439099955730,1.3251186501917500,4.095881222699690,4.543309459452360,6.934063102304200,26.1875,795.6875,-477.625
L,0.6886605420173420,-1.7141294793637800,-1.497429564361960,0.9298410415862620,-1.8509669860603300,-4.21323742191415,-6.891057719285710,44.375,804.3125,-468.5
L,-2.4685391586102200,-0.21246514241230100,-0.06198411650926540,-1.3097371604384500,-0.4868077561422630,1.8255904525532300,4.594664926266910,59.875,819.8125,-435.875
L,-1.2281920964793100,-1.0428918684950500,-1.8543671964039100,-1.8563536150865600,1.2979864570858000,-0.7528567710863430,0.44775051667691900,50.3125,824.25,-430.875
L,4.465963629435750,2.0390055950500400,2.718860597054360,3.0215693946273400,0.5862603046947900,1.3063381784522600,-2.466976458323430,28.375,809.25,-456.125
L,-3.7476535278043900,-1.5507483674284200,-0.9744503701532310,-2.1828684394289500,-2.0397089332600700,-1.8159431375213900,-0.07727753345947260,20.125,800.3125,-472.0625
L,2.5114242948529300,1.5283765235178900,2.27010225608226,2.838515135907770,2.0532968129258400,1.7214481054066800,2.6975078473713100,17.6875,807.4375,-463.0
L,-3.1608857888028300,-2.874412531478820,-5.549363103800270,-3.2743709553879300,-3.532335685134860,-1.8207808799101400,-4.95814492317577,17.4375,808.4375,-459.5625
R,1.0650576520070000,2.0359096119312800,3.6847310946074700,1.0826619936832400,2.187537710595780,0.9867960518160250,0.8527987770219540,10.9375,804.4375,-467.5625
R,0.29459543382423400,0.964729690229544,-0.3756842336743290,0.05189717019202370,0.6611158921482460,-1.0102804223714700,5.065107581305540,14.5,803.25,-471.625
R,-0.6290444469072890,-0.16198890755127900,0.32610681652868200,0.9555304644836390,0.955793785254842,2.72826789595622,-1.1111403787308800,21.5625,809.0,-454.5
R,1.0450156552186500,-1.0815950387469300,0.8829936732171580,0.21827575992343300,-2.0310108318111500,-0.2968782644021400,-1.388514847987470,20.25,818.9375,-444.125
R,1.167541404281770,1.0585848273014100,0.7666614042573340,0.902767840073412,2.519642241375090,-0.43528414662137200,-0.8832036563925080,21.375,813.625,-450.8125
R,-2.6282184954209600,-2.1894246222126400,-2.8251871925015100,-3.916593195350680,-3.3351442555035700,-1.3253632599148800,-1.0292766921256300,22.1875,807.375,-460.375
R,3.3921147479665000,3.036476593583180,1.9614963377668100,5.05312339022689,1.8504569969958500,2.7613597400205800,7.775152731664330,28.875,812.5625,-453.8125
R,-1.6628819869158000,-1.569530397281980,-0.3628648729864660,-3.392029466395590,-0.5337751965301870,-3.8793314309724700,-8.441851191874530,30.5,813.0625,-449.625
R,1.3694628569636500,1.3314214143975200,0.48430220274806900,2.210472771711060,0.9796073006967030,3.7088317260249400,6.480611983252710,30.4375,807.5,-464.3125
R,-3.101130911267980,-1.9224546231445600,-3.0090032336632500,-2.272397629301000,-1.0858087085994800,-4.382569312380110,-6.041851268784320,24.0,809.875,-456.1875
R,0.49070080591333300,-1.2605998266976100,2.7576594888208300,0.9208118542010670,-1.405226204902240,3.8545754217224700,2.482803511159120,19.75,822.5,-436.625
R,0.3873345358599510,1.621370793280770,-1.4249445382550700,-1.0333389660488400,1.7515399614799500,-1.0803923078555700,-0.5981113685298890,22.3125,811.3125,-456.1875
R,0.9305314661428690,-1.009612605029960,0.37032502583957700,1.356771657080380,-1.1294182572872300,0.6580442128197860,0.8028788949996420,28.75,799.9375,-474.375
R,-3.678885744092380,-1.0468777262846300,-1.8495650774821100,-2.8650840562243100,0.19116461492594900,-3.2706386951083300,-5.321667030489150,34.5,810.9375,-452.0625
R,1.7225584528377000,-0.24744815926204100,2.086985450070680,1.8968243681719300,-1.4798646342062600,2.4195227783761,6.701384736597420,29.375,817.375,-442.4375
R,1.6320374180479800,3.716968864151380,0.4350256309444800,1.3775455932817300,3.360349029853210,0.03318689185893020,-2.9824468923356200,43.9375,794.25,-479.8125
R,0.2708042290290540,-1.5703886295850200,0.4594095756518010,-0.28732805389104400,-0.5787613301308940,0.730846220215446,1.4034088893552000,33.5,799.4375,-472.5
R,1.7138709364085700,1.5129633859549800,-0.9192097101871560,-0.3821028209086060,-0.7960854179085760,-1.7177164323635100,-1.2830263726437600,20.0,816.375,-445.0
R,-1.6359278234426200,0.2854064570215710,1.364903360643710,1.7080799867431100,2.779350036259720,3.327197298839290,2.3162385532345600,31.4375,813.0625,-449.1875
N,-1.7987679395036600,-2.037431342337620,-3.2570495792348500,-3.4704780910040800,-3.8100749770934500,-3.5545685007337800,-0.5249461817138060,41.375,811.375,-459.5625
N,0.6347006990888410,-0.506981118448146,1.5729243126865600,0.8712999866334930,0.26802751176643200,0.40855460403157400,-1.458563001765660,30.6875,813.25,-450.0625
N,1.720063655547030,2.0401075196857200,0.9352757701646770,1.5438079816443900,1.4816746714779400,1.852935079994370,1.059628889806640,22.5,804.25,-467.6875
N,-0.9435808979661610,-1.3299760772194500,-0.5531326473770280,-0.9723359190379300,0.1903351273173930,-1.192465651702660,-0.8012024163505620,28.75,802.0,-469.375
N,1.4144802595733700,1.2129767279416300,0.929934214415941,1.00049992165967,-0.42468558720065800,0.4599598949767330,2.2244239327199800,28.8125,794.125,-480.9375
N,-3.172711080743530,-2.085990833663410,-1.3773870720488700,-1.1684926115034600,-0.8384209777129460,-0.4780658437104530,-2.5460122345117900,24.5625,791.875,-485.0
N,1.720000233249830,0.994356888815207,1.0401442399590600,0.15982890385703300,0.49481746630428700,1.2379182636172900,0.4106707557360310,31.25,792.1875,-485.375
N,2.7886287683204700,2.6986639807839100,0.7544813129069630,1.6644833989613300,1.439583539021850,-0.2182174588668910,0.2146088114533810,24.25,795.5625,-479.6875
N,-4.022248378120870,-3.021079131940100,-1.481709628072200,-2.1583635746186300,-2.183551777279670,-2.9934661941710600,1.0488204708182700,29.8125,796.375,-477.0
N,2.9809581366026400,1.4409339284176000,0.8611584242691170,1.6572498899305400,1.5491238165784900,3.7880352206841800,-1.9642307466755100,26.625,792.3125,-484.375
N,-3.457651455256180,-1.9993622132226500,-1.3568357185805700,-1.6736420420493100,-1.4270997753236000,-3.653961217408540,-1.9712312217799400,29.3125,788.625,-488.5
N,1.7252736018994600,1.6721892354728800,0.3833288924690520,1.2688472434021300,0.8717092228392080,2.6486397557508200,5.564093190896320,26.9375,789.875,-487.0
N,1.2853921607694700,-0.3225964629140290,2.0420310886985300,-0.21192926044470100,0.5644917573803760,-0.4353226552789310,-3.1071190474509500,29.5625,793.375,-483.0
N,-2.959342791111650,-1.48761528805313,-3.811452718860120,-1.7177611632897100,-3.176462791758730,-1.6082278399112600,-1.1372794604893000,28.25,788.5625,-488.0
N,1.9862958998710500,2.000128872036140,2.012860869489140,1.6175763383945900,3.724398498695650,1.388612535049860,2.8796306148804300,27.5,787.0625,-489.625
N,-2.288837236113250,-1.3958551540677800,-0.8917586888973970,-1.1238369197869400,-1.8763079876394800,-1.2376534425857900,-2.94402571370248,24.8125,790.0625,-486.4375
N,2.242215242086910,0.822261642150222,1.4757647442084300,1.6250078137133600,1.2189215254562300,0.6050122873430190,1.2468217834576800,28.6875,792.625,-482.8125
N,-0.4573493912351360,-0.649398181091319,-0.6653351711538080,-1.3394236027453700,-1.8224653073408100,-0.8107835468653180,1.111032633332660,27.875,785.6875,-490.4375
N,-1.1290103534484200,0.5629855883546720,-2.0183911508342300,-1.0565175067621300,0.48572357353918000,0.10619939437822600,-1.115451042971030,25.5625,782.6875,-494.625
N,1.2796787852826200,0.07564111940723300,3.1556971115958500,2.602669015083800,1.5227330003144400,1.3691097886105300,-0.16643763570927600,20.875,786.5625,-490.5625
N,-0.22434146787928400,-1.7592872309858000,-1.3450158731145400,-2.3231461476119100,-2.9421803074611500,-0.7398371243777270,0.15857968059381700,22.0625,790.25,-487.3125
N,-1.0509255914334800,1.3996069379586300,-0.6030379092497790,1.0617236909405300,2.443869200873020,0.4989409930377730,-0.26168828828640300,21.875,789.0625,-489.3125
N,1.724312003651160,0.04986013496581340,2.0162752840371000,0.5023873914839830,-0.24330957664217300,0.29466543738485700,-0.4682554656651270,21.3125,787.875,-487.5
N,-2.488830809195270,-0.6124271314627540,-2.8487125106328900,-0.741363489532153,-0.5806029519858630,-1.449850835411870,4.566378593405270,25.875,794.25,-482.4375
N,3.6821040205521600,1.8272504103546800,1.7480403679711200,1.0301246656957600,0.6973143967692980,1.278350860988440,-4.447509740908750,23.1875,796.25,-482.875
N,-1.9641734142800700,-3.1527476744737900,0.06473386493258850,-1.2215014248663800,-0.6473807925077550,0.9717278372506510,0.35438688710204500,25.4375,801.9375,-470.5
N,-1.6596254320309900,0.7001029315515330,-2.778228376755800,-0.8011005001321410,-0.8620861143389730,-0.8826450692690890,3.903729453421660,21.3125,794.875,-480.375
R,3.255664210885380,2.0123127784257600,3.161463090553900,2.8990726819154800,1.4517238723684500,-2.134839900896080,-6.336709820192040,27.5625,797.3125,-476.5
R,0.27947766686772500,3.3673286281997600,1.8118952536676700,0.3720315652190980,2.2492925282730500,3.9709411439311900,4.9511440038573000,24.125,799.8125,-472.3125
R,-2.4631339584420500,-7.20783390780103,-3.825420711452450,-1.640417142486000,-4.078951421900210,-2.4129384301508800,-3.385200130310240,15.9375,805.625,-464.8125
R,1.817568739804790,5.17834793956685,1.9033633196172400,-0.114026813102721,1.7354771451996800,0.6904736777855160,3.132349025882270,12.5,794.8125,-480.8125
R,-1.5253860322491300,-3.0577834699117100,-0.10273463173094100,0.19215088921943600,0.8052799103748800,-0.5471922587182910,-2.7973315415218200,14.75,800.6875,-471.875
R,0.577952417600582,2.9625542620451300,1.1243460986096900,0.17363172525605500,-0.13140637622797400,2.2998238432262600,3.400430869161040,14.375,801.75,-470.25
R,-3.565621739790040,-7.3023469052969000,-4.631137595602720,-3.4342908017524600,-4.790174413551270,-3.8494262449268700,-3.9879430881961300,17.625,806.5,-461.4375
R,6.903467142922480,7.936622637388920,6.384239423170360,6.176192024875420,6.879031503925720,4.35222931000314,4.287748342089590,17.875,804.0,-466.875
R,-3.2115215671787300,-2.8535809818920200,-3.0738581325901900,-3.35078375767364,-3.4728000374832300,-2.913714047758090,-3.907521214823980,14.625,795.3125,-480.0625
R,0.6181806562788780,0.7586483989458650,0.33876439210340300,-0.23241508652779200,1.099399087362170,0.6043638382826920,-0.5741446375666050,13.8125,791.25,-486.5625
R,2.282941723902460,2.218797650686630,1.5721038002748600,2.3532732316301300,0.00886911094377706,0.7738731633442480,5.331716396450400,11.0,800.25,-472.5625
R,-2.929777378294480,-1.2991273215302100,-2.1903957977128900,-1.580544914150780,0.7235902191620780,-0.011820814030131700,-4.565597291045480,16.875,782.125,-495.6875
R,-0.28126448588410800,-2.1752926602249800,-0.051233225322869700,-0.7140561777456990,-2.1383231346550700,-1.4848710170428000,-0.9742048465893950,21.625,786.8125,-489.6875
N,1.0033105678581700,3.1319072386217600,0.9065871014663110,1.6434539045705000,3.7760217610881400,0.8750877129793220,4.742912078139270,18.9375,786.0625,-493.375
N,-5.48277055647506,-7.73566833794814,-4.877732575305560,-5.843013239273010,-9.053876746519640,-4.314819935595820,-8.55925043688481,22.0625,795.4375,-481.125
N,6.681494140791400,8.400477348867990,6.497128393588170,6.973355594491600,9.032811574415490,5.430499065039120,9.609228443921120,28.5625,794.25,-480.625
N,-1.0985167457730600,-2.5966224094774300,-1.5022065050836100,-1.914328684275510,-2.107407294534460,-0.7946679164247660,-4.992801914739060,22.25,784.125,-493.6875
N,-0.552188113028063,0.10041899295681200,-0.789818752779959,0.03755996606472470,-0.729708087637222,-0.06274174358352590,3.0318669899745600,25.9375,785.75,-492.125
N,-3.655496203232300,-3.487697281246930,-1.8408681792540700,-3.2105711676723400,-2.0762517300801500,-2.515764473843320,-4.763434716449400,21.9375,791.9375,-483.6875
N,3.940144056276140,3.9507090320496600,3.0647705621423200,4.595854202205920,3.0990455789108800,3.02616378308859,3.6541884215066900,25.1875,794.1875,-481.5
N,-0.17854020795500000,-1.5724809021442200,-1.1558295181709800,-2.2153814916403400,-1.0867091184502000,-1.3901716828905900,1.3853400763734800,30.375,790.3125,-485.9375
N,-1.8986646475340800,0.47678571272472600,-0.6007867460115230,-0.7440983127494520,-0.9167774884737840,-0.28249113852010600,-3.2512681382653400,27.9375,788.5625,-489.5
N,2.7087628748220100,1.0225087843667900,0.5218665052655560,1.6463211428441900,1.4757762251987800,0.7784586765821800,1.4649556930715200,23.4375,789.0625,-487.0625
N,-1.156502262453300,-0.7124550045518070,-0.5320628559266900,-1.0137154372029200,-0.5704532093628800,0.16362001467989900,1.132881033028880,24.6875,794.125,-481.875
N,0.21835864264883900,0.6937522916683260,1.955096907034940,1.533546252529400,1.7096491874682000,0.38248474165198600,0.15822311777338800,32.5625,796.6875,-476.5
N,0.7807086978694260,-1.1766188184388500,-0.5712993564168940,-1.3973448127787300,-2.0735442879667800,-1.731144627702270,-0.33019497630002200,31.75,795.625,-480.5625
N,-2.034099581294840,-0.18306906957616800,-0.8737109313299380,0.5205122174535250,0.8038116288131820,1.2197625712375500,-2.0780273049847500,32.375,798.5625,-474.25
N,0.58188528312052,1.95911583083772,-1.1859608983148100,-0.9965203909980230,-1.3077387974445100,-0.815526972322398,-0.5391504718262390,31.25,799.0,-474.1875
L,1.231739933796840,-0.5767812679294640,3.7059026269290400,3.038992610894840,3.2180198719133100,3.1577576982693900,5.537912238249820,36.1875,795.75,-477.75
L,-1.852941641346490,-2.711741110006490,-4.073774823188960,-4.094655710966860,-3.927412098961320,-5.568064299099640,-6.654836764244770,35.9375,790.1875,-486.9375
L,1.369083945645820,2.412865207289070,1.8035207331227600,1.4840948597828000,1.9280541883251400,4.514395146374250,1.045977242632360,32.5625,793.0625,-481.3125
L,1.002255764499070,0.19880998230830300,0.7384345251214010,0.6675393965902510,0.5891490021247410,-2.1409821388168700,4.53927183500113,41.9375,793.5625,-480.3125
L,-3.508820338213520,-1.7000239066084100,-2.211960166377370,-0.4593941509450580,-1.3155442635490800,0.6336409942703530,-4.273941442983930,33.0,791.5625,-482.75
L,1.8155814710022300,0.8020321946277120,1.4476435744797700,-0.14964512197297100,0.5168190994140310,-1.4049150449360600,0.26230248362042200,41.125,785.125,-489.3125
L,3.825788461613510,2.370780306666870,0.8341826749073350,0.7824787464507120,0.6671168134787960,1.9226576801858600,1.086822964988890,36.5,779.9375,-496.75
L,-2.167480991178380,-1.047184800194730,0.8411244154943650,1.061526236266730,0.37585584479755300,-0.41002751416191200,1.8975100050377500,47.0625,787.1875,-486.9375
L,-0.8137879606164610,-1.2720201761410400,-1.6896901184585100,-1.5959545227588600,-0.8552319590569800,-0.28194557981517400,-3.8026587234668700,37.875,791.1875,-484.0625
L,-0.7093885425512540,0.7257120162317480,-0.18173253292046100,-0.8815966217881940,-0.8183447656266190,0.40680590467985000,-0.1263603926319230,32.8125,783.5625,-491.4375
L,0.5854827701190210,-0.13966179446798500,0.9475181521418200,2.2132220947116400,1.2280351692415100,0.548322947126925,3.41567281291482,38.875,781.25,-494.0
L,-1.4266182977677200,-0.1983451257516120,-2.31665786965412,-2.2970024979913400,-1.6736021027988900,-2.223872796277090,0.14428583465943200,55.5625,788.875,-483.75
L,2.373056227547690,0.8096098370253280,3.374328267887200,3.1498034209349500,2.058363260926130,3.5622236696265700,2.248924896983310,41.625,788.9375,-487.625
L,-3.237179462974790,-3.128935078736750,-3.6645808592370100,-5.039123105125840,-2.321706885181140,-4.517583991711970,-6.287250315430900,55.125,780.6875,-493.6875
L,0.947126944785085,0.5330677642811430,1.792103308563250,3.147618584145170,1.1566023584354100,2.180606138160590,2.482934497627970,52.375,785.5,-489.25
L,4.147108497854360,5.568762541545480,2.2505335769686700,2.702421111199500,2.897604516878190,1.982666122638010,1.5359650636578900,64.75,795.875,-474.625
L,-4.1044325744243700,-4.965729041185380,-4.205950790656290,-3.877006394384300,-3.370814480494060,-3.9006278208744700,-4.050585670780440,35.0625,791.1875,-483.125
L,1.6670176554098800,1.7546654096174600,2.8535435852581200,1.7449838791490700,1.4125045229098000,3.310587029066430,0.9824988321412150,32.4375,785.8125,-491.4375
L,0.2067548578845280,-0.5737954467544480,-0.7983864218728590,-0.5269716254829230,-0.028085759814620900,-1.9956039651145000,-0.0752484890241517,36.0625,787.875,-488.9375
L,-1.5287220980184200,-0.06866535844569220,-0.759603751046357,-0.5926936255107190,-1.2753650238496100,-0.31955760645155400,8.069011906630490,50.6875,791.6875,-482.625
L,-0.44888867736893000,-1.638311216630620,-0.5184340930470040,-0.4074249723591390,-0.1486003309747870,0.9900661359949850,-10.763565564938800,19.875,792.9375,-479.25
L,0.19234666907986500,0.5213870243227340,1.7197973033068800,-0.2023182796962140,1.240867139234050,0.21100257081175300,5.239840622316010,15.5625,790.4375,-486.8125
L,0.9205874627830120,1.0217998876197600,-1.7771160191694600,-0.21833255780220900,-1.3666634256592500,-1.8323647500887100,-7.917288696190370,31.3125,779.875,-497.625
L,0.6446059402473590,1.0361167341598300,0.7156989776408630,1.5813714947111200,0.969819987283033,1.483890623014390,23.775222176958600,61.75,789.9375,-480.125
L,-0.12888920880087400,-1.0283726891129400,1.5929932756930400,-0.25592725371810200,0.036923350544327100,-1.393118663942780,-26.246904856300200,44.75,783.8125,-491.1875
L,0.5165089994787170,0.807618446004331,-0.6008012714448970,0.8890691455577860,0.9194033139965660,2.0432404388652900,10.37588940685900,24.8125,790.0625,-486.875
L,-1.824661986682300,-1.4015523875363100,-0.8422632459439930,-1.6141612189082600,-1.067385322464960,-0.6179796229166710,-0.6211689641128110,7.5,780.1875,-498.5625
N,4.044434259556740,2.693872307954470,2.9637578930855100,2.7382997241298800,1.7733675276099000,2.0780038306275300,5.94044720640511,20.4375,793.625,-481.875
N,-2.2422450722158800,-1.2252200860325900,-2.4593101951390000,-2.2811609286225100,-2.0966052739348800,-3.1736400228427900,-8.971631884713370,7.5625,794.8125,-480.625
N,-1.1055465213850000,-0.8699982456466540,-0.5176547919625370,0.14949391486348800,0.678572071044805,1.2628140318541400,2.350854492974040,1.5625,789.8125,-487.5
N,-1.0080689481367300,-0.6441105478391470,-0.11485976608232800,-1.3708130399467500,-1.807453400574740,-0.8301125931225210,-1.1590736028285000,0.8125,788.6875,-489.5
N,0.8336198939730430,-0.6120674198082050,1.2918459991880600,2.4258161533011300,2.2831212417256700,2.3167796874086700,2.8431654390150700,8.75,786.75,-493.375
N,-0.32099327750150900,0.9653374509335030,-2.9402784454934600,-3.0723085072051300,-2.1778191317703800,-4.469557367960010,-3.5231441823646400,8.875,789.5,-490.0
N,1.7531582630646100,2.043039550459070,3.581560369780880,3.6778205529213100,2.0068535214786700,5.230003082431720,1.7547157129414800,12.25,782.3125,-497.25
N,0.8327402560674830,-0.21564508853388100,-1.0621118167683300,-1.1196338462066600,0.3102671817364660,-2.6255070386598100,-0.24457145440758200,6.0625,782.375,-497.9375
N,-3.659540405961300,-2.969626260500390,-2.1535359893725500,-1.8483931977377800,-2.472255701931950,-0.007322905742990660,-1.5475591028175500,11.0,778.5625,-499.0
N,0.058513831047056600,-0.36267090487020800,1.3504504788884500,0.20574989448531500,0.529207793216341,-0.9456187125212190,0.8616773275016570,14.3125,779.1875,-500.1875
N,1.5584106521463100,1.1229533706976800,0.180283074770364,0.9492505676590700,0.7142351297254530,1.522928576776750,1.21624359079774,12.0,774.4375,-502.875
N,1.5652832233546200,1.5284969109569500,1.322837608975540,1.3717456019694800,1.5985422436033100,0.69552877702611,-0.6741589092264020,8.5625,774.375,-504.3125
N,-2.0030684280408500,-0.8755423463772490,-1.8084701278476400,-1.3230174759086200,-1.4385909649459100,-0.931435326162346,2.2430919615384100,8.1875,773.125,-504.6875
N,0.9829373145340630,-1.4469784202681900,0.22252202960335700,0.33377423664740600,0.34615019514638200,-0.012243546744773700,-0.7121696059134510,13.625,772.4375,-504.625
N,-0.7582901222873820,2.146912960043240,0.37113157139119400,-0.5752572464705410,0.16182997530561500,-0.6902752763723090,0.8711456042539530,13.5,760.9375,-520.625
N,0.7866234013399900,-0.9573533015281190,-0.2811757755211160,0.2460168049416850,-0.10769894671788700,0.7539410830914860,-3.2559401830139300,12.6875,762.9375,-519.875
N,-0.999493264587239,0.07074206914265050,-0.39331133152619400,0.2406310483379190,-1.249676713618520,0.5267087410755710,1.8316702846788000,14.875,765.3125,-515.5
N,-0.7185890591302490,-1.5529342145479400,-1.0501409144828500,-2.3369357326535900,-0.7549492996512960,-2.312303624565250,-2.561937218139510,13.75,766.625,-513.4375
N,0.5462448289370580,1.687942309948870,1.4515903462253600,1.6679156510931700,1.4470753132920100,1.6452441875017400,4.631716255201640,12.3125,765.6875,-514.25
N,3.57859871201153,2.422117611908390,1.7693260415202900,2.3747597844878900,2.3102249210104000,1.0534690586628400,-2.985323719206390,12.1875,762.3125,-517.5
N,-4.953838054293590,-4.331176148317650,-2.5397074594363500,-3.500228517487190,-2.8071407339664700,-2.229784529942920,1.4011508929774800,5.75,753.0,-533.1875
N,2.6541132424213800,4.501195475865030,2.3377325598177600,2.49883885134188,0.8983614218102060,2.096975452320040,0.03861075421472650,6.9375,753.8125,-532.625
N,0.26272322881588200,-2.6885428432166600,-1.350703681129010,-0.7291178638173450,0.34244548947537000,-0.3308345138375510,0.6537261278747190,4.3125,757.0,-525.5
N,-1.0427103158033500,1.0479769922112300,0.7212778490976620,-0.06881384418266800,-0.3539704976536490,-1.200802186130390,-2.911974977091200,7.0625,757.5625,-526.9375
N,0.38048531986336400,-1.0993913788750500,-1.3138887532792600,0.16800506494649300,0.2899091784461350,0.37415392773985800,3.3913247018123400,11.0,753.0625,-532.8125
N,-0.9973459817753010,-0.24897936356911300,0.6998786052004590,-1.2348333889177900,-1.2742076095676700,-0.4638954430351270,-3.305443566761480,11.0,754.125,-531.375
N,0.9920302823800830,1.0212630513772800,-0.6708372748556340,1.2493977507524500,1.265309114240860,0.8831893162747600,1.9464784853985500,8.8125,759.375,-523.125
N,0.3425328503017310,-1.4707121734994000,1.6933962099802200,0.19092505587964300,-0.1238651733363990,1.2605632140645100,0.5795746551809560,11.8125,760.25,-522.75
N,-0.7359073220753160,1.6180612813836100,-1.3738432717814700,-0.14116155020995600,0.5450172428040280,-1.5544773310223800,-0.34239949349536800,10.75,758.25,-527.1875
R,0.05535536179139870,-1.6435478499515100,-0.2923367349317220,-1.3768907956944900,-1.2544125061080300,0.16863187706112600,-2.8871747373221200,13.5,755.5,-529.3125
R,-1.0046596775794500,0.8540966810517460,0.5745614134122230,0.22179210057664600,0.005067650059562310,-0.12234905532859300,1.034591535398010,8.3125,757.4375,-528.0625
R,2.0228744692664700,0.4813830892909790,0.9365709245189130,2.1272625237828400,1.854497398605910,1.7911048608498000,3.718144973252460,13.375,761.0625,-519.0
R,-0.9923289356844750,-2.2474004084161600,-0.8636238747245880,-1.264593154950750,-1.9621385694937900,-1.1225888340304500,-3.3993704577235700,30.3125,760.0,-520.875
R,2.5019596535744300,3.574826533228050,3.1649893507457900,2.682820044453100,2.9531697560977200,2.378234903795640,1.8136904387165600,32.25,754.75,-530.125
R,-2.415336076175960,-1.5288036759568600,-3.5312088792919300,-2.8406457725984300,-2.4379165034720900,-3.080124547150560,-0.5366327615529470,27.875,764.25,-517.25
R,4.257318142860440,3.882838031205640,2.828866763903510,2.081787532259330,2.4711448660210700,0.6538102906895780,-0.603886957036967,26.8125,764.5,-516.125
R,-3.570455287055300,-3.437432310245950,-1.7733164288685700,-0.6702791953434870,-1.0239108314790300,0.84810752409615,2.270564232891640,7.0625,766.125,-515.0
R,-2.235964791444240,-2.1055489003158800,-2.497493897815770,-3.1703708544191000,-4.29267937251896,-3.12841056108715,-7.424617174900910,12.0,763.875,-517.3125
R,3.4646150917246700,3.69878548375231,4.346269933623470,4.081826583678710,5.564316041049260,3.9394283224810600,8.868761815432990,14.375,762.625,-517.125
R,-1.1528518804200100,-1.6864077726630200,-2.4764256546477700,-2.3402679270176800,-1.9293941956659300,-2.431272540594480,-4.791471682556160,18.5,761.1875,-520.875
R,1.9646108871780600,3.004834888964870,3.782743988885990,3.680692755971300,1.7004250652721700,3.7093177324785300,4.171125111524220,9.5,768.0,-512.375
R,-6.97663657530142,-8.50327832341521,-8.303349141753760,-7.9805247231952700,-6.881475496464310,-7.517019985919250,-6.878204915969830,6.5,769.75,-509.4375
R,5.138539727630340,6.8837993962184900,4.747718945063680,4.735573099139650,4.574731207692360,5.135405698058010,4.466024666725900,30.625,759.75,-523.4375
R,0.13024897251029500,-1.153237544513190,0.9828805368699790,0.5803590575941350,1.0322037878916500,0.2518871577007440,-2.098160579111430,28.4375,746.125,-543.5
R,-2.4310819717609600,-1.479068001054470,-2.0522466833672400,-1.8238606945317300,-2.5214265626396500,-2.970383661459990,4.880463603165280,30.125,744.8125,-545.75
R,1.7535667385316400,0.780670733863034,0.7847769655844050,0.5898987834087590,0.8732795201635310,0.7568941725692140,-7.011515646997060,18.0,744.25,-548.9375
R,2.6795609941568500,2.3281393866059400,1.582089131327350,2.953515579190380,2.9029970592269800,3.41565914507365,10.992178204772200,14.5625,744.75,-546.6875
R,-2.6801433969569100,-0.5816159056950770,-0.9631420023765230,-1.503041234250700,-2.1145092160964400,-2.483751563143940,-8.685975133929780,33.25,744.9375,-543.875
L,-1.3956169375399600,-3.2964042125890200,-1.2097279599151700,-2.66109321340119,-1.0067940034375500,-0.08399391492814760,0.49173413285164400,18.6875,749.1875,-542.0
L,1.8876460197778300,2.4198550210723100,1.4536449565328000,2.203387077241070,1.0621614247506900,-0.2870911643915620,1.2156470441418700,14.1875,743.9375,-547.125
L,-1.1689270173790200,-1.301708965331690,-0.7202131071057510,-0.4705098662364520,-0.40982713168032000,1.7170814175891900,2.6173934558167600,5.9375,756.0625,-530.25
L,-0.6770957347974400,-0.20723470521455900,-0.8778656038538050,-1.0274753666487300,-0.4621513534675620,-0.7742102925967930,-2.47892174707581,14.25,751.125,-537.5625
L,2.3953065709853700,2.6891996698745200,2.2040620254442800,3.185958149310650,2.0726687623574000,0.2289220375975380,2.7634091000498200,19.0,753.0625,-534.75
L,-1.4762533820709800,-3.1845430113029300,-1.6885876717544400,-2.7168322294047800,-2.009506975069700,-0.6374738391078250,-5.109152180621730,17.5625,752.1875,-533.125
L,0.09644600303326890,0.8238549103035290,0.24002541922688800,0.2857797457736620,0.3024372665756850,-0.8718761119400660,4.356909645396470,21.125,751.5,-535.25
L,-1.4147488405615600,0.07996352453325470,-2.618587630524540,-1.126114340661150,-1.644033789820990,-0.7957534307107510,-6.921451056254670,32.0625,756.5625,-527.6875
L,2.183942179626140,0.5410611869739990,4.813960064067960,2.666429997729660,3.515704575808800,3.4774813235559800,6.673304399213300,38.625,750.625,-536.125
L,-0.9980284655976870,-0.9337067819362220,-3.2571100657514800,-1.585102297545960,-1.949216339011660,-2.6585315030303500,-2.5348506493682100,29.6875,744.0,-547.0625
L,-1.3818704301639400,-0.658615253819602,2.08112558791488,-0.470029927898318,-0.2686631919060060,1.6949894450165800,-1.3098146718057000,31.3125,748.5,-541.25
L,1.3755953531723700,-0.2919980807586740,-2.0952272232441300,-0.2325166391509380,-0.6680913993037450,-1.1870769856571500,4.7366930078460700,41.25,749.5625,-537.75
L,-0.9987371810819140,0.9885561667388080,-0.4347817445470440,0.06129762088116330,-0.04340753119146960,-0.4006436662916630,-5.577536414779820,60.0,752.625,-529.3125
L,3.589516273783940,2.9497584848895100,4.25895973269939,2.8359425903776200,3.075322676032700,2.786002062531040,6.309342741146210,46.8125,758.0625,-519.6875
L,-2.991522562691630,-1.968699031096150,-3.7685937279311600,-3.851719181036380,-3.353277642977670,-2.82923412625698,-6.9379677400429900,37.0625,760.625,-521.9375
L,1.5361089554792900,-0.27241112637210800,2.396615435620130,2.7725477050425200,1.6322425128610600,0.33139683137511200,5.174337694454590,39.25,757.625,-523.75
L,-2.7266103224904200,-0.5268089238900170,-2.3645183782429900,-0.3359137639813940,0.11769663171964300,2.1229478199067300,-1.7126475291015800,36.5625,763.9375,-513.625
L,2.738119700230340,0.03269218631576040,2.085317294070750,-0.9802850190169300,-0.9054282277971230,-1.8254163784137000,-0.18480028142763100,15.6875,754.5,-529.0625
L,-1.2263103729518300,-2.373964273178420,-1.6100640895798100,-1.1431484579161300,0.3974541931880640,-0.0031093509849658900,-0.8777553090592950,20.875,753.1875,-534.9375
L,-0.7321835973661720,3.638237757494730,0.525155500983692,1.9366240798895600,-0.22116972918760700,0.13576499134815400,1.6679372724722700,9.625,747.125,-543.4375
R,3.2917226712105800,1.1716416954793900,1.641336752578810,1.763597013863410,2.1828840046502200,2.0149038110704,2.69336155094187,28.9375,758.3125,-523.1875
R,-3.008544636186340,-3.2834159318149500,-2.344016873355980,-2.8149778076159000,-3.0109556339268900,-3.3927798616364100,-5.406196130624350,9.25,753.5,-537.0
R,1.738117239521920,2.072947472432080,0.8397836318992870,0.6685718325283800,2.7252635469029300,1.963429314334570,0.30201699284245900,8.125,758.5625,-527.25
R,-2.03275596618615,-1.0993954076237000,0.4618914179298220,-0.3478719486576120,-1.7189033643331400,-1.048201989046390,2.8612385193197700,21.6875,746.625,-544.125
R,1.1278388920987600,0.5020610650046590,-1.800353111843920,-0.06465037026161080,1.473145902286010,-0.9974157403097290,-3.1174812376601200,18.125,749.5625,-540.0
R,-1.798804377044500,-3.215665730851680,0.44736210599061100,-0.6233109929928610,-4.241802980354490,1.5911068403517100,0.7429704881274620,19.625,756.875,-525.0625
R,3.1153766803454500,4.906605919913160,1.9446098105442600,1.2310502378918400,5.213156137257920,1.022213600228830,2.1136019138659000,38.0625,739.3125,-555.1875
R,-2.7067427504832000,-3.895451435379370,-3.049565909860570,-1.6639958076237600,-3.965761735122060,-2.4079670690575600,-5.781033304069090,30.5625,750.125,-538.0625
R,2.5345832392878200,2.2893950072950100,2.62029072856557,1.3604397413171500,2.6092481621402700,0.9121307794522780,7.6453344025989700,26.5,755.0,-527.9375
R,-2.2545655874860400,-0.9689665003376560,-1.2917811222518100,0.5332043198371960,-1.2467635380555800,0.6341885379355640,-3.067646909506550,36.3125,759.1875,-520.6875
R,0.5143737184173530,0.0954036465995797,0.06469446426862550,-1.0860147993169100,0.1290807530898590,-0.8884489892249200,-1.2563648905330300,25.9375,752.9375,-533.3125
R,2.254233734569410,2.4633497459274900,2.393978323600320,2.6088433510946400,2.13835283767995,2.2314160761595100,3.6010853461680800,16.0625,753.8125,-532.375
R,-1.824362783001820,-2.513361826528110,-2.8615257757447300,-3.094903948244150,-1.9206935295196400,-2.8888544908774500,-4.549786109907120,16.4375,755.5625,-527.9375
R,2.399447095002950,2.298996608516060,2.6542449034040300,3.340934157639640,1.3421347737547800,3.6993539760182800,6.492988056961580,20.5625,765.625,-517.25
R,-2.9654805759481400,-3.2492383256358100,-2.466368538885480,-3.3185563682341900,-2.1729825392911100,-2.720714572941010,-6.511905276295520,32.0,761.8125,-519.75
R,1.2536829555203300,2.451071405905110,0.4552069819883540,1.5526473486014000,1.298148271418860,-0.41908717618750000,1.5197536904679000,18.625,759.375,-525.4375
R,-0.9794561400203310,-0.5610307438465430,0.876572780525091,-0.18442449093645400,0.8968216447287100,0.5345465119527470,1.4809499888208500,17.875,757.9375,-522.1875
R,0.05103445150493800,-0.07639195119991000,-1.9592104562655500,-0.868033289046519,-1.6815151662153900,-0.9882987131841610,-1.33095470541156,15.0625,764.4375,-515.875
R,0.16416240871332600,-2.459018089869210,1.5427748375300100,0.5687218014758720,-0.3913878693971480,1.9927037241095300,0.9464778479712550,25.0625,779.9375,-495.5
R,-0.35660478272140300,3.1049095360347000,0.7097281144439320,0.8628904504095030,1.5471554982871400,-1.6352256166414700,0.08361056555470620,32.9375,753.0,-533.5625
R,3.036654747319800,0.21125610107954600,1.1086086229770200,0.014560309153749800,-0.0043381675938360600,2.451874763069630,-1.68988927855553,28.125,760.0,-522.25
R,-3.7682457935124100,-2.1532652875633600,-2.276951622689070,-0.9278013096024670,-0.6448124259498490,-0.9851266044971060,-0.23353876352398200,22.6875,759.875,-524.9375
R,3.694451145483840,2.725092496067580,0.3978249280137920,0.3082856140686740,-0.06717907874631910,-2.775393654195240,10.296032779574500,18.0625,772.0,-504.0
R,-1.8252306000210000,-2.062928851734880,0.7986462315294370,-0.1227940838701820,-0.19090773911185900,2.7119246604266400,-16.900342494076500,32.6875,752.0,-532.375
R,0.9933206412441000,3.8054061978156900,1.2526247586701200,2.059227237571590,3.393521440099910,1.252617352383240,12.745824919096200,29.5,758.0,-527.25
R,-5.580535779675240,-7.625272497248810,-5.310001816009270,-4.493918686494100,-5.811002430130510,-4.011254466871720,-6.2608802345319400,19.75,760.9375,-520.9375
R,2.6652149941875200,1.7405460781553700,2.018013917441300,0.7735084800522900,1.1016014446962900,1.8154882621500300,3.558047237378970,14.25,773.875,-506.4375
R,0.8142860094907240,3.1203968385192800,0.9127772681720990,2.0557205426927000,2.14832861066842,0.46068485707586100,-1.8575129082427500,20.25,774.5625,-503.125
R,-0.6231316380718380,-1.3435994361385700,-0.29273041400967400,-1.0883084832116600,-0.93367252336764,-0.9300586746226610,-3.372814413114590,18.8125,751.6875,-538.0
R,-0.532763438314103,-0.5410708062987430,-0.1817259351278190,0.009236682588494660,0.41297947193411500,0.2754892381764690,3.089812311501140,20.4375,756.25,-528.9375
N,2.5222091144496900,2.6333354257631000,2.69379865335855,1.7545144239884400,0.8876603697670800,2.9954337423690400,3.5484445951082900,11.1875,767.375,-514.3125
N,-4.037297665990710,-4.708363062570390,-5.874853075092940,-4.697661654795030,-4.9598394916788800,-6.117015676047540,-5.600982333839590,26.375,769.25,-507.8125
N,6.246354801136670,6.856668058199790,6.636131754812760,6.75099468568142,7.121574495824410,6.079652331408960,1.9161839688711900,24.5625,756.6875,-530.5625
R,-3.1546576425714800,-4.395292042465260,-3.2510154858561800,-4.224926595223060,-4.243198866989860,-3.420218567073320,2.6846460071719600,28.9375,756.6875,-526.1875
R,-0.7436417814924890,0.2890790592257250,0.3665824019681080,1.2306145718227200,0.5491935701174410,-0.03609784167113330,-3.3952601181524800,40.8125,759.75,-520.25
R,0.34119052022087800,-0.39611714965735300,0.15205084192466900,0.5228298861846260,0.9515790640612850,2.8349071722851700,3.1529449271323700,36.8125,764.875,-514.25
R,-2.5715423026237800,-1.599285009166140,-2.6094148539596400,-3.8905098015512300,-5.176132168917860,-6.254393264096400,-4.74329637289248,26.3125,772.4375,-502.875
R,7.4905437433189800,6.6750602936885000,5.758218134417840,6.076498133501780,8.50842417813284,7.444124599699220,3.019830826885790,34.6875,762.125,-519.5
R,-5.036724088278170,-3.98088855835053,-3.1198775496030800,-1.818990750296120,-3.4051956640547100,-2.6087306165842200,2.6559994076529300,39.25,758.1875,-523.125
R,1.5314765635576300,-0.2603019390095970,-0.24853281080787300,-1.4640861561895100,-0.2027740255091590,-0.37810595105589700,-3.571775970046340,37.0,762.1875,-516.9375
R,-1.259772465919510,-0.7388140065025800,-0.098912389660631,0.022874504804652700,-1.5853371302175000,-0.6896779475793710,3.4285465832611300,33.25,771.6875,-505.5
R,1.6195119951158000,1.6187728936901200,1.3488583803164600,1.9156702261455600,2.8655612709653400,1.9418319676293700,-3.224236528692550,31.0,764.625,-515.75
R,-2.5777042911504500,-0.743132957811323,-1.1408033734625400,-2.36843668961261,-1.58316111400008,-1.845467372348590,1.5400258395771100,38.375,762.9375,-519.1875
R,6.7909439684616900,4.9158810900662400,2.9685233245702300,4.02286866851244,3.2245636574588200,1.5616027475871700,1.3161547083354600,28.3125,768.6875,-510.5625
R,-10.814213957725600,-11.151468077612500,-6.876567082259630,-8.083409170493250,-8.669114509380560,-4.0794542745113700,-6.240831333982140,30.5625,772.25,-504.8125
R,9.135576187758190,9.417680715473770,7.30188249726232,8.682843747648950,9.76403333529359,5.896988451838070,5.519808921880180,16.375,753.6875,-534.3125
R,-3.5500452507936700,-2.703279286545090,-3.088318834767960,-3.901981006774900,-4.644513920614250,-2.8094763611580200,-2.4174410179783400,7.6875,752.9375,-532.6875
R,-0.38850566160353900,-0.019007575850504800,-0.0020938931522534900,0.15753220847799800,1.6311673298163300,0.10193872206812500,4.61160391347787,11.4375,759.5,-525.3125
N,-5.837572480135470,-7.368864419436360,-5.1361004281019600,-5.150193475967950,-8.080148067183720,-3.4124256600032800,-8.99344974251887,17.0625,772.875,-503.3125
N,8.54090617578054,10.201257448192500,8.7905778153699,8.298287395622610,11.385661161731200,5.860475313725630,5.036985532869320,25.0625,766.3125,-517.625
N,-3.995091442699840,-5.467353411339060,-4.767718352749480,-4.3011578079417200,-5.628853745463410,-2.5581967964416000,0.3227577569316940,41.6875,777.0625,-497.1875
N,1.5777765718990900,2.6734970173902100,1.0348139310920800,1.8721518953898900,1.5799114270907200,-0.4482190214344020,-1.2122798836076800,46.625,759.0625,-521.3125
N,-0.4311268264468370,-0.5536142721074770,-0.2996696536949780,-1.2489438037612200,-0.9944707520499020,0.8292901352586490,1.2228721531053100,50.9375,756.9375,-521.3125
N,0.7570226454191140,0.4702790355447830,0.4959373313064100,0.4363125053849500,1.5997755255173300,-0.5196812697172810,-0.5476447252170310,46.25,758.9375,-519.9375
N,-0.38768377040646700,-0.3381429750353060,-0.8229378695039530,-0.380708850175551,-1.5423523346021800,-0.3027964680007970,0.9845660002015740,43.625,761.0625,-517.9375
N,3.566144459770030,3.6634029756965900,3.23653013118166,3.3967568757564700,3.3451808144231100,3.15427602089748,1.7641694403270500,37.8125,767.9375,-509.875
N,-4.324028939786300,-5.079213238083840,-3.011719011657380,-3.9079324991794200,-3.8116421545637500,-3.57385088317358,-2.790633043540160,41.5,772.125,-504.5625
N,1.4972557197595300,3.1835295541289000,0.320517032254872,1.9533683917153700,1.9797901116832900,1.1672121754315800,0.5263650492418470,41.625,777.625,-498.1875
N,-1.2033473210785400,-2.3500181360781800,-0.6124990238989180,-1.2977701000488000,-1.2475577240117700,-0.5126718215516210,0.1111787253943410,36.25,780.5,-497.375
N,-2.413733705049240,-1.6521272864943000,-0.48456849691393600,-1.1093009197993300,-0.26029466954081000,-1.0517230112000000,-2.04728657481488,35.5,791.6875,-483.25
N,4.393668255613570,3.628230271940130,1.260215793478740,1.8067711542202100,0.8081773503745930,1.016564930245460,3.12358923756041,38.4375,789.75,-487.1875
L,-2.210489175044780,-2.336640548350850,-0.7352162225265450,-0.9874255691308960,-0.8722104758557000,-0.37247580195159200,-2.466741390239340,42.8125,778.75,-496.0625
L,1.3532095870955800,1.1313767138995100,0.3547447710131190,0.8512906528807860,0.4319104705446830,0.6005120754516780,0.2641594041803880,38.0,780.9375,-495.6875
L,0.37191699970346500,0.1040919319124410,1.6482806033634000,0.22507782281112900,1.0182140477486600,-0.7423385040632140,-0.13401718523830600,40.0,791.0,-486.25
L,-3.387716590624920,-1.9184420033383300,-4.371420864786030,-1.272777475762180,-3.3087689468828700,1.0342231607182900,3.1943024126961200,53.75,785.5,-485.5625
L,2.6415794460467600,2.210296567208890,3.6361482046800300,-0.007008329505648820,3.019230287012530,-1.020449032305190,-4.81167107267808,45.125,775.5,-500.1875
L,-2.464021887187870,-1.3101362169477600,-2.1362756720015900,1.376634627834220,-1.4787492027492900,0.7091289022188400,0.3455766498604790,37.0,776.125,-501.0
L,3.4900087806909100,2.807855283989460,2.913946477090300,-0.8228380868158280,2.618317073316080,-0.9419736651171080,4.749051189727160,33.375,783.5625,-493.0625
L,-5.196382017777000,-5.4037686330279,-5.921529692710810,-1.7193035812107700,-5.285730755590750,-0.9712041277941640,-5.127685160915820,31.4375,786.375,-487.875
L,6.42327030657485,5.20529649875451,6.928693715546880,1.7806890682855800,5.204454313284560,2.498973306325010,3.278683376937470,51.25,768.0,-515.5625
L,-5.364177481941940,-3.6056730090478500,-5.884612105227450,-0.5097717712175000,-4.05263261608829,-1.859781079273260,-3.6642243287320000,50.1875,802.25,-465.25
L,6.115320104923550,5.349979339736640,6.411439819024690,1.6684410526053700,5.158989285092340,3.2738859351990300,4.990835647564400,19.0,799.0,-476.8125
L,-8.826342897897930,-7.235916113310440,-9.279141800942220,-3.1034380823216900,-6.369863895116920,-5.596493651724510,-4.008675892296900,41.125,804.875,-462.1875
L,5.7497623913679700,1.806782321359510,7.106534915016850,0.9554667193465020,3.4218124289627600,4.582015450184370,1.4237595228959200,16.5,794.0625,-484.25
L,-3.353619942461180,2.2771890489662700,-3.754334086509290,1.6887934670604900,-0.18386287462390000,0.4048043689322700,2.1639069982758100,32.6875,814.0,-442.4375
L,1.768963622487370,-1.5937282544102500,4.252937237105470,-1.203961829106210,0.5388575770754910,-2.5193164491082800,-2.2646271128306900,4.5625,777.875,-505.375
L,0.9617896947388450,0.4893032236284870,-5.532706282192970,-1.3737953232109600,-3.6929501519153000,0.7571744334853850,0.31285523002463600,21.6875,804.0,-462.5625
L,0.9074228728678290,0.7432585350138050,7.216153056599900,3.559293796604000,6.057184706012290,1.3282326092820500,-0.9498773336888270,4.0,793.0,-485.875
L,-4.2446644631140200,-2.7646245555386200,-7.747163124793060,-3.7087965011272400,-6.781241965780470,-1.5621298833193600,0.6546909407640590,1.625,794.8125,-477.125
L,5.477326831670330,3.0963878891807100,7.351892096186890,3.0171323976847500,7.731051876572900,1.7816888528635300,-0.6984120155571550,0.8125,796.75,-478.1875
L,-3.8747265816592400,-0.48847031764356800,-4.089158066047740,-0.21679487597140900,-5.201853772961200,-0.43495989664329600,1.7956257537822500,12.0,799.125,-470.6875
R,4.393210966748940,1.6263269184843300,4.825481603814470,2.3749938156699100,5.754951041438300,1.9217376114569000,3.989900649151810,14.5,791.875,-484.0
R,-0.9675877571203070,0.8176366205218570,-3.142220764252770,-3.5001244452165500,-2.7062126449942600,-2.062064138873700,-6.8019229832662400,14.875,793.1875,-481.625
R,-0.7992578012031230,-1.4846162524583600,0.6794319930297410,1.9423783351476000,0.37103111246594700,0.6854402166939710,3.146967976397680,22.625,787.8125,-486.875
R,2.4600761054061200,1.1275501150738200,1.1817887230973500,-0.5320093945421020,0.7147339668774550,1.0229663462177500,5.174127766800410,35.0625,760.375,-525.625
R,-4.43419467774078,-3.870733945558370,-2.445942420671500,-0.12801564705692400,-3.838193411710180,-0.769914662105738,-8.662660763054980,47.25,781.625,-493.0625
R,1.7785488430012800,2.7437516233544400,0.7014764421491660,-1.2816724142617200,3.4172742042381100,-2.3596979278683000,6.494517888116990,52.3125,777.0,-498.3125
R,-2.235831902271910,-3.366154125875580,-1.8281771558366600,-0.528781769915405,-5.418363309334570,0.2682027938507580,-5.514960204775100,45.1875,773.9375,-502.75
R,4.12126467448111,4.021908562260710,1.9604435706665900,0.4782368325772170,5.022225292089020,-0.16217651378022900,4.660045664847250,42.25,774.6875,-500.875
R,-3.4603764350473100,-3.609844446174270,-0.9227290382143090,0.798952674423105,-5.228752835377210,2.1394373964499000,-4.251622220180410,33.5,775.8125,-501.5
R,2.4785429147222900,1.9982184694925600,1.521977617331220,0.13760035128957500,5.889702445302980,-1.3388031196439500,3.2632848669347700,44.1875,761.0,-523.9375
R,-0.7221100874508590,0.21169188197319400,-0.6265630659403140,-0.08394397488357090,-5.8895697832835100,1.3840313835830800,-1.0741429715331900,34.6875,772.9375,-500.375
R,1.3139761029429600,1.5652073603535800,0.4318229912672890,0.5768163998484120,6.800833629992980,-2.0876583403745800,-3.0337352742867200,26.25,743.625,-554.0
R,-7.971717595445830,-9.02432424577407,-6.333895636062420,-5.630337874582810,-11.676711015292400,-4.463864410631800,-3.299560743409140,30.875,787.9375,-482.0625
R,7.983189547112760,10.329737812857000,7.28687055466392,6.022784057853210,12.585309840550000,7.038433888034250,9.786965533310190,13.4375,775.75,-508.125
R,-3.2664106341519000,-5.240454369601620,-3.696611047893730,-3.1516876030196500,-9.260028315131540,-2.6944493000139600,-5.715176195278070,19.9375,785.9375,-490.0625
R,3.910223553762490,2.8220867984761200,3.4786293089226100,3.453644991621290,8.46310507847083,1.3806724315544100,2.589311363699130,32.8125,770.625,-511.3125
R,1.3326355274685000,2.7309953205695600,1.0620859786538400,1.406619578946230,-3.836181935473200,2.903430270670660,1.8913839925128400,42.25,805.625,-452.875
R,-5.961924943362630,-5.876645478722060,-5.477712972426990,-5.702881486436650,-0.5030387339852900,-6.503918374397060,-5.4650793595344200,38.5,766.0625,-521.5625
R,1.880105039387170,2.1487689026010200,3.1324803617313000,3.4373420467993400,-1.5230972767188900,4.347576320604890,2.828178865179830,30.625,788.125,-485.5
R,2.777538778994250,1.5197854042230000,1.0895551263192900,-0.28503659860225600,4.617893937786090,0.12612729289005600,0.9307548767811020,26.375,782.3125,-495.8125
R,-2.5761754152075200,-2.091868704133450,-0.4715563812603800,0.3082240754017620,-5.632224878244380,-0.8746472394859540,-0.851558811348247,40.0625,799.875,-463.6875
R,-2.1427572678537300,-1.7307653363299000,-2.677416722953470,-3.8477546478199200,2.263948431240140,-2.7908066358953900,-2.8556758849972200,63.875,771.875,-509.0
R,7.295902135031560,4.746125898560740,4.944356231857380,6.642505427073000,-0.49230633697681700,5.3895166147226200,4.291964394373720,45.4375,823.6875,-424.3125
R,-8.460747899049330,-4.836545976720250,-5.954415306776260,-5.873671797831250,1.4392496391556700,-6.952887599591440,-5.227872883427090,42.375,789.1875,-487.4375
N,6.1131211617963700,3.2285310962762100,4.642979037855730,3.9524998759901700,-1.5090650268002100,6.503216190741790,5.270954229287740,50.1875,777.9375,-495.5625
N,-2.693165938000020,-0.7077695431458180,-1.6038726033470300,-1.4643067629017500,4.910570697334900,-4.373748883009000,-3.3372993128185100,51.0,769.5625,-508.4375
N,-0.9692677166142670,-1.353759752823660,-1.2341999079249000,-1.3825955991271800,-5.138154002605220,1.5845945275384100,2.2064034901160300,47.9375,783.1875,-491.0
N,1.520404139908270,1.2603083233753100,2.007565875098270,1.8277625519337300,2.8101772330738300,-0.924483924666003,-0.805392536821034,53.5625,778.0625,-497.8125
N,-1.4100418396044400,0.19894587978034900,-1.749265520711350,-1.4354527546124500,-0.7549195166038050,1.1973081095678900,1.2207140740301400,45.0625,773.875,-502.1875
N,1.0573081735672200,-1.0522013180646300,0.9798952668126760,0.9145754941509560,-0.4082323060809160,-1.118823094084710,-2.976270901714040,41.6875,756.8125,-524.25
N,-0.2317252734086490,0.18536033216984400,-0.3311836137238220,-0.5251840825816610,-0.3759977365516240,1.3194987370465700,4.077497239761380,40.75,762.5625,-517.75
N,1.527287900360290,3.101877353459220,0.6600353195715040,2.134912211183530,2.781294977619140,-0.02165893070323960,-2.8504973680830400,49.625,784.3125,-492.25
N,2.0964153542031700,-0.3035161167658170,1.4663336256966800,0.5951023963991250,-0.1998942586506030,1.9371057860429600,2.2230696032579700,48.9375,784.8125,-490.0
N,-4.779501745037250,-2.9066506372505200,-3.1063643875287600,-3.1897544863636500,-2.3041980225795500,-4.119352201304730,-3.4019694240893500,46.375,786.0625,-490.4375
N,2.3777343286980600,0.6735889305321070,1.9178815798192100,1.6467964789793500,0.5429750125796260,3.169357470551510,0.36045574954144500,49.3125,789.625,-484.5
N,-1.7687835630379700,0.09663283982511850,-2.741494108095400,-2.3477124779720500,-0.6293329387114460,-2.0747589809017200,3.5662379559528900,53.0625,784.875,-489.25
N,1.0597350898686600,-0.6341846714259590,2.3648648460388300,2.631495466145450,1.528110848247330,1.4629188236412600,-3.3121245746202200,50.25,774.8125,-501.375
N,0.9947856119859580,1.8551140023280400,0.8596995307262370,-0.4926425114162450,-0.886994552182208,0.9114903501944130,3.056137935441660,44.125,775.1875,-501.5
N,-2.1312374752935900,-1.682677969176940,-1.9882119978970100,-1.725095712282550,-0.329662930925428,-1.555240776875990,-4.105310438361070,39.9375,779.5625,-498.875
N,0.09411567130793220,-0.37244899351596100,0.08393285250990440,0.7925145257025510,-0.14107405481412000,-1.6262746210360100,0.9989484612405670,43.375,778.5625,-497.8125
N,0.7283876259277010,0.5914312302113850,-0.07491501685236130,0.6198585011974980,0.3048496243599740,1.2468662674148500,-1.4480729323148700,41.8125,776.6875,-499.9375
N,-0.7014554176437000,0.7319573716370190,0.10638196873582800,-1.1690415914062300,-0.16033114560894600,0.11656413777897800,4.1601954082215600,40.1875,777.0,-502.6875
N,0.12693537193252900,-0.9024268817918290,-0.48278192211511600,0.21586463010709300,-0.30076333335552300,-0.739321564292034,-3.633711205473610,34.0,779.25,-497.875
N,-0.6871905241006890,-0.6358196909535880,0.19188375575612000,-0.02709419500331820,0.007441109617701930,0.613585446718682,3.9559119517532300,31.125,778.0625,-498.8125
N,1.5879167722945400,2.461303036978350,1.429120097293530,1.707510725584910,1.6379009589224600,0.9510435687764450,-1.6789285303405700,35.125,774.8125,-500.75
N,-1.0952420291486800,-2.650694640443460,-1.3719569606803900,-1.7682848518051000,-1.5979129686879500,0.2967578183238310,0.14675001623630900,36.125,769.8125,-507.8125
N,0.17112046992403200,1.7311431385466500,1.6094814354809000,1.7973211474578400,1.4546828282594700,-0.19212895213152800,0.16606273383907800,31.125,765.625,-513.5
N,-0.3547840563870880,-0.7891996443639940,-1.8453533142171800,-1.80673252581834,-0.1539059545307800,-0.9600337021174050,-1.103335183755210,31.875,763.125,-516.875
N,-1.0298413089869300,-0.6660621624041000,0.8045379837930180,0.7466266938919890,-1.5580991261943100,1.1805969844140600,-0.3780743616601850,27.6875,762.3125,-517.125
N,2.7383465329957800,0.7945844728525800,0.4663423720255260,-0.03526948785294750,0.5720712533763610,-0.831589791352684,2.5230932613844300,25.0,759.5625,-521.3125
N,-1.004707011476350,0.06049112745602900,0.062008994568886800,0.03831147016448930,0.4121738005823860,-0.3048817682442850,-2.1014975651378500,30.75,757.3125,-526.1875
N,0.5361257385574700,0.8546358115279710,-0.17178946539885700,0.6418139735396620,0.10073990168433800,-0.31561532085881600,-0.6813417839575190,33.6875,756.9375,-525.0625
L,-1.68434913127487,-1.2791598079001600,-0.3496977872983910,-0.8942752856070630,-0.9356552618847220,-0.416215432285898,0.33170156608319400,32.0,756.1875,-528.3125
L,3.3494847466411600,1.8361589815570000,1.1674694092224500,-0.7858194895665170,0.8343240250050400,1.2949528021516600,-0.07196458666528130,39.125,764.375,-516.0625
L,-1.224144658305420,-1.361073682467040,0.4846166951175990,3.6113121456819800,1.8472905009571300,1.1535064130282400,-4.900065559096860,23.75,783.25,-489.0
L,3.5078038365370100,5.435274299873690,1.2346085865377600,0.3612528202786190,0.2800343325386910,0.8280886529235360,9.605376438113400,2.3125,790.75,-482.625
L,-6.1656342563125000,-7.502990168286350,-2.9118386758500500,-3.665425837213210,-2.0013655466271800,-2.4478744071838200,-5.300505725287250,-10.625,808.375,-462.5625
L,-1.0690322602457800,0.7714862610894050,-3.0795018624229600,-0.08988903393411340,-1.8479512040478900,-0.6980974037184090,8.014023959508090,28.0625,788.875,-486.125
L,4.191685832612120,1.6796923127664000,6.068549610086430,2.812652010663290,4.492734159879170,3.2824075015634500,-7.867671578863440,24.1875,777.4375,-500.25
L,-5.255028192137560,-1.41124084888885,-7.7758818549426400,-4.65998675934157,-6.223968548775880,-4.480579569732590,4.755376708074370,58.875,780.875,-492.375
L,6.262615732312410,2.7244114960627600,8.366098911105900,4.418339124971310,6.852895019909940,4.403528206702430,-4.115906273817580,14.4375,766.8125,-513.375
L,-5.344480337719270,-2.3025966673625800,-6.8715981681985100,-2.12464159528116,-5.266272986581300,-4.016310659517470,5.139252595829110,52.625,785.9375,-487.875
L,5.068581015927230,1.4697373348282000,5.902162980058010,1.0767910813634600,3.324376193393850,3.498734240819940,-7.601702023667320,30.1875,778.5625,-501.6875
L,-5.346424164787190,-3.214518758005610,-6.054909522649940,-1.6191456897220400,-4.4400523865919500,-2.8479000751254400,3.5041978769997300,20.625,784.125,-488.125
L,6.391882840787210,5.32429168451919,7.099391122276930,0.48883121221333400,3.5573936587190000,-0.7736186396137970,-1.979728054410050,10.625,784.4375,-485.5
L,-2.584905707064520,-2.233025205351280,-3.757307072350070,0.7200602307247060,-0.17487098648683100,0.056266886080028100,-0.6155566212147480,15.625,793.625,-487.25
L,0.21989645214823400,-0.5582395212231060,2.148005201435810,-0.8474249213732340,-0.3649069743320350,0.7789885944918950,3.630634520642000,12.3125,789.5625,-487.9375
L,2.3358486177854500,2.6137328632146200,0.41980893664230600,3.4240516028452900,2.0504278583585600,2.3489217466592600,-3.144778509019570,-6.4375,785.25,-492.3125
L,-4.633363094216140,-3.6650287069853600,-5.469081853986320,-4.7340594877939100,-5.078146662965050,-2.37505470747663,10.640565467775500,23.3125,781.3125,-498.5
L,2.671832991553740,1.2487653400990200,5.256942331006890,2.8171205436306600,5.496994006437830,1.411390856771520,-10.514785179270400,11.0,779.125,-501.1875
L,-1.9742432103311100,0.7261265705074700,-3.5605461662850500,0.5447678621488030,-3.212856749776420,0.10553340934513300,2.895439430479670,16.9375,774.125,-505.0
L,3.4714606935128200,1.813579017606460,4.283945742734360,-0.686859508354104,3.696483369052100,-0.3775107355432780,-2.0828749054863000,8.6875,782.5,-490.1875
L,-3.107469899602590,-2.1653199080141500,-5.5704753624514300,-0.7011078126993460,-4.902226796589040,-1.7601223306470800,2.6465175914782000,17.75,813.375,-452.9375
L,1.7284625289527900,0.5738001446851990,4.175825474506290,-0.42883395512994500,2.7936123392588700,1.8919289183418100,-2.1313858790323100,4.0,783.8125,-492.625
L,-1.4587261455287900,-1.6446037951171600,-1.230971135084900,1.955640572132000,-0.7121080460375980,-0.4668949999049730,0.19992779914991100,0.1875,796.1875,-480.5625
L,0.129386960985285,0.6726202759786410,0.7432559429693170,-2.3796771687210600,-0.31812491911294600,-1.1275881406597100,-2.168821121824140,18.5625,771.1875,-505.3125
L,0.6104625395040790,0.5164261624926490,-0.4751997612851200,1.1869437636299800,0.1397527500924430,1.2460162521287700,2.084171810837800,24.125,780.0,-502.5
L,-1.3257391755138600,-0.6943336991983850,-1.8762279509927300,-1.3431733071097900,-1.9124409926143000,-2.069677658743990,0.7937287035570040,23.9375,781.9375,-494.6875
L,2.769000858681220,-0.5745833490476620,3.4229954857698600,2.3953995780788000,4.069089149421330,2.5179500000532900,-0.9738461215617780,-3.75,785.9375,-496.5
L,-5.943956124916690,-0.6997092323573610,-6.435439027296340,-4.241654047370790,-5.6519525846553700,-0.7631079613177030,0.8136193280576550,-20.625,783.5,-494.1875
L,5.214542741401040,1.8425133066005700,6.803853320838850,3.427494506441880,5.213346970877600,1.0685149922733000,-1.3143890230121800,-6.75,766.75,-514.5625
L,-5.13944836643733,-2.7252401975009900,-5.548281733510720,-1.5127262984797900,-3.2059708612088800,-1.752439084230870,1.6222773018148900,8.875,774.4375,-503.4375
L,6.53148596494639,4.214869193968450,5.865937870707630,2.0929897723382800,2.959384710567420,2.151295244137830,-2.0377605284602800,28.0625,762.375,-519.8125
L,-5.716991079160830,-4.671140352342270,-6.421494493071310,-3.035163006870640,-4.161683730581630,-3.49989898553925,-2.702116454197320,33.125,774.0,-506.25
L,6.39104888856227,5.375153758251060,7.874800099681650,3.18990479774671,3.9564104219560800,3.5611197990575000,7.550591275982370,37.25,778.9375,-496.3125
L,-4.127067491225640,-4.536733052393910,-5.8735372310767200,-1.2847906648910700,-0.853210678821597,-1.5676128275399500,-6.934711039058440,11.6875,803.3125,-464.8125
L,1.0513875170987400,2.408027716199750,3.993691937895330,0.4351188019153070,-1.3426917001959000,-0.3838988481509570,6.427483153450880,4.1875,799.5,-472.5625
L,0.4502397596660210,-1.6928376542991900,-1.6077388746969200,-0.1992908638961310,2.7769097164788300,0.5638079202489540,-7.450468948325120,-25.5625,782.6875,-498.6875
L,-1.071214639658490,3.224457416811430,-1.9024421120764600,-0.42815901023905300,-4.860304443044290,1.0636347182469700,9.454183747133360,10.4375,807.625,-450.8125
L,-0.8093443531025260,-4.117699679623250,0.9735099816073480,-0.3543161813843970,4.406584127925980,-1.7353462944556800,-8.894599935051160,1.8125,793.625,-482.125
L,-0.5515824432323660,1.8717904170661400,-3.8644721249958500,-0.6048816519178940,-4.796572596420880,0.3957046380015460,8.055063003160130,-0.4375,802.0,-471.0
L,0.2063938545780110,-1.4561289018302500,5.567645105244960,-0.28181454407420200,4.705891148832710,2.1883735158804800,-5.507944833959250,-29.875,795.875,-476.8125
L,-1.9136132822663100,0.8621289779044080,-5.594413059675800,0.8724571584998080,-5.420113747928940,-2.803298848112770,0.7318124983326510,-2.1875,808.75,-452.1875
L,7.326665109112700,3.1075733399125000,7.89499815615473,1.9005650492280100,8.301254919323160,3.529447306491140,3.123326223389870,-28.5625,807.6875,-459.8125
L,-5.66535275895774,-1.9167328048966700,-7.581244439916800,-1.5495145983141900,-6.509160384811420,-5.184693289637770,-3.6850503051470100,-6.0,796.375,-476.1875
L,3.562136112300780,-1.3350943197360800,6.71110987500615,-0.2959161415320410,3.9189276647694300,4.2038827742835200,3.5953606097448000,-14.8125,785.625,-490.375
L,-4.857299848449770,-0.06389938825069480,-5.9244728071477300,0.0971828009399178,-1.5699715697782700,-3.3764732406322600,-5.937616574226670,-21.625,790.5625,-487.25
L,6.85267843072857,1.7738094005484100,8.008753789796720,1.3631429488215200,0.18284550736234200,2.1489538844863500,4.763620827079310,20.0625,786.8125,-488.4375
L,-2.022423121193120,-0.3870392051325410,-2.9058042518281700,1.5511159009567200,2.831995465167790,0.8123870147153260,-0.3822258683017400,46.0625,784.75,-491.0625
L,-3.1922192279736200,-0.5501246206252600,-2.7483475175745700,-4.2228381504012100,-6.1673371867882,-0.19194421830415100,0.27224649847174800,11.375,796.5,-477.25
L,4.75056087518553,1.1382507514689100,3.778519994306700,3.773899185962090,5.771394342006770,0.1805979543677270,-0.16594033390493800,-17.625,782.375,-502.3125
L,-6.111229365300330,-1.01000356216427,-8.906917030084070,-5.398605427635220,-8.665691590859590,-3.0195812919422300,-1.8750493929626200,2.0,786.0625,-492.9375
L,0.72021068930218,-2.5706664326403100,5.838841136938140,2.032479092510900,7.224497046093950,1.3490529269706700,-0.28130065760254300,4.3125,769.1875,-512.5
L,-1.136541203669460,0.30651981203227700,-4.110563693874640,-0.5645047874344250,-3.568399729678840,-0.3722214868246290,0.5332136755114620,49.5,774.25,-497.625
L,5.294287659283020,3.278429652995380,6.300382085113850,1.3556604737386800,2.5061491824206400,1.2808689633257200,-1.0712967232575000,8.25,784.0,-492.5625
L,-6.60157633436234,-3.887473746690930,-6.5411128292865,-0.4343605344911880,-1.2137621613419700,-0.5543753366556760,1.5792914319288300,9.6875,788.0,-487.0
L,9.947865551417840,6.524702286379350,11.024287216018700,3.8759798791925000,3.9481104539545500,1.1372810114411100,0.905900213096018,21.8125,770.5,-516.375
L,-9.948925361974580,-7.756449434452710,-9.08643605797252,-4.124959158691620,-1.2875474749192500,-2.333285700294010,-6.0712410868838100,23.625,798.0625,-466.8125
L,4.606344340587580,5.727507067314450,2.0553231228048500,0.8802565728901250,-4.9126858267530500,0.7207167116417580,8.528910393423900,3.0625,783.6875,-500.375
L,-0.4436771780412040,-2.65117656396736,0.864556556045585,0.553168335871718,6.222937687778020,0.09252431263005790,-4.937587675560550,-1.5,791.625,-482.875
L,-0.4969898043802970,0.41082235124717000,-2.757622954434000,-0.4733543498666210,-7.082086648105010,0.52724409397202,5.512815356694850,16.125,791.0625,-487.1875
R,-3.5667105203713400,-4.661539428077920,0.1710528257740760,-4.164880709893300,3.247997607173660,-1.9999980073380400,-8.974613665001350,0.0,804.1875,-469.3125
R,12.670617147509900,13.60947522301480,8.156812772903450,9.055484425853990,6.161534776845380,5.493173195698980,5.712433758811000,-12.5,818.625,-440.1875
R,-12.971290448443300,-10.197846458589600,-9.956612771707540,-8.241347256470970,-5.580762048868620,-7.229713209413660,-0.8743511019336910,-3.3125,812.6875,-460.5
R,6.21228850420432,1.8312986034730100,5.202534155555690,5.351530645246000,-3.4923081964361300,4.933886888210010,1.1309496148858700,23.8125,786.25,-482.25
R,-0.5431342474132250,1.5042619245065500,0.7706573957731370,-0.22128444863147700,9.67919284773141,-0.5276716531943440,0.5664350042783290,0.5,753.4375,-538.6875
R,-3.7414868184919000,-3.8654063429864000,-5.079947309445600,-3.82888044904489,-7.584458149028910,-2.6923339666359400,-1.2109468032811600,16.0,749.125,-542.8125
R,7.897315617179690,2.941125399040550,7.619667980508720,6.493876993755020,0.39942700273165100,4.839785185298470,1.0306820449449300,23.0625,752.25,-535.3125
R,-6.667206393449270,-0.3094497021380150,-5.933916998588310,-5.384749795745290,2.2940364252682200,-3.596726596855770,-2.7473250021101700,24.0,743.625,-551.0
R,1.6623372617920000,-2.401335055108390,1.9831947792663200,2.0784717844321300,-3.3096097861752800,2.5419013135425300,4.237406801202780,20.0,749.875,-532.6875
R,0.7747090562332140,4.901085930155860,0.057923386619405800,0.03570423563614350,5.36147020919287,-2.064275479052080,-2.5260926399722900,23.25,752.4375,-539.6875
R,-4.47634281324655,-4.969064981991260,-2.8937672727240800,-2.2279229977149700,-3.220240968969190,-1.5091884578231800,-3.108819920014410,19.0625,760.375,-527.875
R,8.12689676470789,4.159832670921600,4.5077415772768600,3.602197371373620,-2.0791003005524300,4.072066178802380,4.724462350472020,32.375,734.4375,-551.125
R,-3.4728070089360400,-4.020750998019140,-4.324368678097550,-5.910656749213540,2.2183221593708600,-4.066860863585660,-5.292157276145080,47.875,720.6875,-583.4375
R,-12.737995088878200,4.825691778435120,2.590172256733700,5.632492853655040,1.8754504676297900,3.4528613819549700,7.447459769143640,63.0,728.75,-562.8125
R,13.012343125045200,-5.960594887737040,-1.1355374842757400,-2.121829366881640,-6.745311475840310,-1.0867502035209300,-5.217799542920760,53.1875,760.5,-525.1875
R,-4.380166019338170,0.32498621755313800,-1.9999491131383700,-4.451827571736300,4.480478698379310,-4.581784635294400,-3.7679782894655000,59.6875,719.1875,-578.25
R,0.687151482903093,1.8510172106151100,2.651182994664050,5.356497799650630,-0.5922432520763400,5.3724040072037,8.364760201279600,25.1875,756.75,-526.5
R,4.415365889934340,0.7065835476541990,1.0068401005166200,-0.19208151562285500,2.2394670197015900,-0.8073411548523860,-0.0379335298861879,12.125,756.25,-536.625
R,-2.3021270698362400,1.775798066948710,-2.4770535212302500,-1.4548231934275700,0.5837281222139730,-2.6076967920492900,-13.126040181582300,57.8125,737.625,-556.6875
R,-5.137583257057590,-3.6407893848827200,-0.5467431105939470,0.1766389511376030,-6.137504011276460,2.824602725014130,9.922618040839320,29.6875,769.4375,-499.75
R,7.292523623196730,6.997958521598830,6.589756868015670,4.511599701110470,11.50503291579760,1.5640998665419600,3.771577969304080,47.8125,743.875,-552.0625
R,-1.5529483492993200,-10.453909489170300,-9.17576386978569,-8.410985725021810,-9.79649603743272,-5.122217569453400,-7.434970502665170,47.25,757.8125,-532.8125
R,7.106219654729040,12.787103039029600,10.262320350424000,10.909713345180300,6.178167364105720,7.433898703037060,6.990353272325510,19.1875,763.5625,-510.3125
R,-8.158987032989660,-6.714241587362330,-5.005561006880490,-6.9476672549157000,-1.7776379223353100,-5.717201319514940,-2.868651605152330,20.1875,737.875,-558.8125
R,-1.1085654903310500,-0.15761032613755700,-1.8423624221654800,0.09104551026115350,-1.4148968778360000,-0.6341782266670860,-1.4845658889793600,37.0,740.75,-547.3125
R,9.090133781111040,3.0311870088293800,4.18387830878195,3.4600384510642400,-4.981920024011570,4.717295901803500,5.965904657022530,13.375,776.625,-509.25
R,-13.293547930126500,-8.069934559759190,-7.915474582421390,-8.978243225598520,4.2846739079788100,-8.076931068667330,-9.886569862336380,53.875,735.25,-556.4375
R,4.935771957775100,3.320305786400110,3.9363830189250700,7.083395182751030,-0.9801649194322720,4.945594905332190,3.9527602413707600,31.6875,770.5625,-508.4375
R,9.795416015153520,10.713209794353300,7.432145014137420,4.831524255946210,6.593961969938010,5.837434625045160,7.583831167757650,37.8125,811.5,-446.0
R,-18.310430096044900,-16.622963224926400,-13.971753976940400,-12.771278343545600,-8.288205050873010,-12.60485751125170,-16.35759965745280,28.6875,772.25,-518.875
R,15.062424463402100,13.068222014340000,13.03855948148070,12.681969866970000,3.150207297054920,14.665844080036800,17.82512297402390,16.9375,756.0625,-518.8125
R,-4.8906644635064,-5.197515864988340,-4.491178479112630,-4.812194628329380,6.77592080672263,-9.406726306817710,-7.613983722899920,11.875,782.5625,-497.3125
R,-7.302415004190730,-6.213591984872880,-7.139335038830410,-6.4328629449729200,-9.585381518474550,-2.8632159506962700,-8.616514692289960,53.6875,780.0,-504.1875
R,13.677481969166100,11.469176233596900,12.881439373499300,12.075789927668000,4.34857515332165,12.139165752478200,18.230281333698300,66.25,778.6875,-468.125
R,-7.203044756893500,-5.197079104007140,-7.803160928190440,-7.460020319448360,0.8922692116711790,-8.640470398177280,-9.668409187914870,34.6875,771.875,-520.5
R,-1.6348342761663500,0.34635768247578800,1.981450173278410,1.262051951557890,-1.1564048295942600,1.060020864754760,0.44098963303700300,-0.3125,773.6875,-508.625
R,5.1852627507168700,0.37316012418762400,0.19186011445186300,2.1296552364622400,-4.855118961597120,2.6410370489060300,2.976668448237380,12.8125,791.5625,-478.3125
R,-4.9873579947891900,-3.3359379187699200,-3.0283327353304800,-5.818630439013270,4.656972471266440,-5.498068441937180,-8.461755808068050,51.9375,776.1875,-504.875
R,-2.260416000383810,0.8295740653445490,0.5793451689517700,2.9515719787808400,-3.071123793249550,2.013836820874760,6.663939731062920,17.5625,789.4375,-485.1875
R,4.651789297087280,-0.6362553348799700,0.006673908954045370,-0.7154485830962830,1.0130419510801400,1.0327921852459200,-2.2022365315763400,-0.8125,795.3125,-473.625
R,-2.0112528087741800,2.4142390568506,-1.1443756906685400,-1.5510106635980100,1.0261938128553100,-5.082626435805920,-6.849485843853290,44.0,771.375,-515.1875
R,3.985514479895740,0.44868525797157900,5.277402378593820,6.704798957357420,-0.5388588486659480,10.773236878190300,13.323565800546600,45.6875,774.25,-490.625
R,3.403058471295340,7.5048668993870400,0.2358926169834450,-1.4752183054491200,7.848574833012030,-7.012742645692160,-7.702414748193900,40.3125,775.3125,-503.6875
R,-11.264888633399300,-13.210022637446900,-6.245746524566300,-6.011867080243640,-9.985121197668070,-1.471236785830930,-4.324794853234380,-19.0625,798.875,-477.5625
R,6.5564173680528600,3.914524831648410,2.7026038442737600,3.7551006950534900,-5.166324397886140,3.155159206546250,6.0610592393858000,33.375,789.0,-480.25
N,-5.7628308846255800,-3.285809834021080,-4.522223082581420,-6.231751483581370,6.9848390747532700,-5.762392982049090,-7.4963421880852,84.0625,760.3125,-519.6875
N,1.7525312992396200,1.9865459828530200,4.925389733237910,5.322418325310850,0.3803118869516250,4.301187167749860,6.0262295144379500,45.0625,780.0,-492.3125
N,5.444915702220870,2.8939639813379700,2.7991974343863100,1.6933999829383400,0.6050461092947750,2.6415683645213600,2.916303748844910,46.5625,753.125,-528.75
N,-14.691472973668900,-7.718368642437300,-12.264786484878500,-7.400284426130000,-4.424042367071210,-8.978522555101850,-0.40838423943777400,47.0625,765.0625,-511.3125
N,31.31737262973630,19.21773315671560,23.787773146971900,19.05396238814280,14.144400868474800,17.63941808841020,7.211197846225460,43.0625,765.5,-512.0
N,-33.94771036150510,-22.537039460447700,-25.781189297922600,-22.67420173572860,-17.90610540440510,-17.963562418447100,-12.097255816396600,38.0,745.3125,-545.8125
N,20.890489802432,15.438414516619100,16.31825391063270,13.943251064784400,11.983725026155200,9.700738023845930,6.300629726339010,31.8125,738.1875,-557.5
N,-18.176502143640900,-13.717676457339600,-14.12497374244690,-11.965349414103600,-10.822402460111300,-9.064310776276470,-6.916035156054810,42.6875,751.0625,-534.4375
N,12.463293313438900,7.2300318587904500,10.99432894631510,8.304269157111100,6.717752296434550,9.27974937288646,4.1856008448427300,58.25,752.8125,-530.75
N,12.627215045225600,9.743850442204810,6.287074840814990,6.817124456316080,5.461883205523900,3.73743100595644,4.151239662585590,48.125,747.8125,-541.625
N,-17.793833749611800,-12.185843130942000,-9.706237653180130,-8.8166048772106,-6.7655503249913400,-7.032006613027600,-5.089293855207750,43.9375,751.9375,-531.875
N,5.787942778365090,4.125149439237210,2.5268515473672300,2.0565145659165700,1.866205858665240,0.388983227266855,-0.14764200007721700,45.8125,760.8125,-517.0625
N,8.849621287817680,4.545267462687210,7.0403671839306900,6.011869217067180,3.079031162824090,8.36973597999439,8.506003674960360,50.375,759.1875,-522.0
N,-17.71531472667850,-8.932588160412200,-13.633987875400100,-11.1943472276795,-5.589512179564450,-14.581523511238400,-13.43974291323330,47.0,756.125,-524.875
N,15.301560236775200,8.33142422661261,13.489789235861800,10.231387710218800,5.590480098740530,14.704945920873100,12.915210395387500,43.4375,760.8125,-519.625
N,-9.667248354847410,-5.3381504751995100,-10.081039825929700,-6.614138306303420,-4.774275230725730,-9.544632137855020,-9.23006455211827,40.25,763.0,-517.0
N,-2.751441705306850,-1.8998848299865500,-0.7917023508537190,-2.315137283021150,-1.6367698710088300,-0.8879916424421040,2.57095268299472,43.9375,762.25,-517.25
N,13.960057525999800,6.948772608499350,10.509816609891100,9.255837767383960,5.9169161099878000,7.589714645058520,0.5580258414302010,41.1875,762.0,-516.4375
N,-9.121201303482080,-3.9092419716668500,-6.47992081754932,-4.811442383300960,-2.8614704589833100,-3.5248629944070500,0.6317148941374510,33.9375,754.5625,-533.375
N,1.3607747602329900,1.0803556168333200,0.52591393946268,0.2551424947385380,1.4496965071239100,-2.5975994539017300,-0.4528566421312320,31.4375,747.1875,-546.1875
N,0.5180112492647960,0.567166467408419,-0.38900934915990800,-0.9003602283784910,-1.1860205022357700,0.9371408646663980,0.47464456453948100,30.875,741.875,-552.1875
N,-5.086624153328290,-3.441988880968780,-3.965906694312460,-2.9422106575857800,-3.7034696274284000,-1.8534175954331100,-4.846831408447790,28.0,742.0625,-549.375
N,5.663679294371920,3.6214667565262500,6.145609756517410,5.138151452327370,6.331933499003390,4.365465478155130,7.072785838397440,28.125,744.8125,-551.9375
N,-0.32948953348333500,1.0781211104249000,-1.0049865469961400,0.15036691590879500,-1.1664858256747800,0.35489680853974500,-0.7959577750906580,28.5625,742.8125,-545.5
N,-11.71992001914060,-10.222344753038000,-11.78265162917520,-11.161853749570900,-8.822504775706630,-10.415505339887400,-10.229783890569900,29.0625,741.375,-549.75
N,7.717063646339830,5.45103225986455,8.677855593287260,7.58601019650747,5.786773161883250,5.5807790893092300,6.866851940705530,33.125,747.5625,-543.1875
N,19.191591061739000,15.352341816826800,15.718823205017900,13.21903009826470,10.215179502086200,14.071520858142700,7.6566735544301200,35.0,753.5625,-532.3125
N,-22.60593401560560,-20.79317653005680,-19.590010306668100,-17.174101946303300,-12.659400557736000,-15.568267955826300,-12.0490639772404,19.5,745.9375,-546.375
N,3.95542824230963,9.007425755942090,4.822653328887270,4.751275528482890,3.5807657009906500,3.694942093324570,8.042913767878770,18.0,750.0,-538.1875
N,6.0979378643986300,-2.240524306882820,4.36908409932368,2.7337208327295700,1.7844833780609200,4.839708461232370,-1.788519501821720,24.375,753.5625,-532.25
N,-12.28477426145980,-4.979990885146590,-10.49325234743620,-8.027981010085950,-6.734981973961940,-9.093748825105250,-3.2210092470779900,20.625,743.375,-550.5
N,6.530857766681240,3.4212865154880000,4.944947012066280,4.839993308913960,3.779325607940060,4.811019950522650,-0.06661627499358120,12.875,739.25,-553.25
N,3.2355766368370300,3.9540174409199900,3.662918173132220,2.2246601067715800,2.637087942040140,2.855382238420110,2.9686095094885600,7.3125,740.4375,-554.75
N,-13.645333054794400,-8.925901356574960,-12.201783653005700,-10.228377733537400,-7.991666527294860,-11.961509941783600,-5.855838912190440,5.6875,744.75,-549.0625
N,16.11254172977810,10.241526552196100,13.027086059685300,11.682526464088700,8.884922596098360,11.177320575104100,6.40587043562291,12.5625,750.5625,-537.5625
N,0.6429430402187970,2.7777366268687300,-1.3856079806865100,-0.20337010482688700,1.237048214153860,-1.0199815028515900,-0.4694800458597710,16.4375,751.6875,-536.5625
N,-7.045386939709720,-8.286782779413810,-0.6854006098564050,-3.2265402107374000,-5.670653764599830,-0.9978948719731840,-3.1894030896502900,20.25,747.4375,-543.375
N,1.8068318207763100,3.060328929931010,-1.8362738950554400,-0.43238895713214800,2.3936929029266900,-1.1846374678653000,3.0959083183148900,18.9375,756.25,-527.9375
N,0.2686271078360120,-0.991000832832486,0.4804650251530980,1.3449257447607500,0.5232319793628820,0.17580511649850400,-2.0537929467550500,24.875,773.1875,-503.5
R,-0.012711038824984700,0.8837250813364770,-0.5942901625955080,-0.9613825667467810,-1.7879974178023300,-0.9462222277378050,0.10600755621363900,24.9375,773.6875,-503.6875
R,-0.765112921513278,1.7853790593111800,1.3011136580191900,-0.49589386847733900,8.370043335725480,1.881207418478380,1.1424193054374400,33.8125,771.75,-502.875
R,-0.4762247776289260,-2.108852946568370,-0.4088640108926940,1.5565865747383100,-6.502874383913950,-0.6180794980722350,1.154384649157850,25.0,781.0625,-502.5625
R,-1.662798042145250,-3.101439547398490,-1.5795545345108800,-1.7424434356849400,-8.56681211325914,-0.15160679008499200,-3.3863701271449200,22.1875,766.3125,-514.9375
R,0.8832635628736190,5.2915015965107100,-0.7036890965422670,0.2961821996268480,6.9029360520081600,-0.6290045899984340,1.3794805999517300,18.125,762.0,-521.8125
R,2.631170046052040,-3.353529127383420,4.273971420119170,1.8150353145214900,-0.6677005017305930,1.970155798154510,1.3329476703116100,25.25,773.5,-509.875
R,-2.9033556833067800,2.2102442841365100,-4.246748351817970,-1.7366301589381000,-3.5233822667710300,-2.2063703535931600,0.9468624021147060,25.5,769.375,-515.1875
R,1.568048055489640,-0.8580372402110700,3.155875051086050,0.5668196525623500,7.15378758176444,0.7813162245522700,-2.320365845803030,28.25,766.8125,-517.5625
R,-0.6481377906200230,-1.6930015022665200,-2.5758685276892700,0.6270897022450250,-6.2553031778732,0.6260222942378920,2.244256261550790,9.9375,771.0,-505.25
R,0.051344447977668100,-0.9653435722368400,0.5371312370616050,-3.0693711829203200,4.953363780851520,-2.2728728470480400,-5.307588154388200,10.125,735.8125,-567.5
R,-0.44258376528947100,2.258556300411320,1.8945099794364700,3.3965440416958700,-0.6409261653159950,2.761570752164810,6.09257069690605,11.125,759.375,-523.5625
R,1.2770529490252200,-0.5767438730887170,-1.7461393572345900,-1.7396056154435100,-1.0562251777470400,-2.050521164752660,-1.793674558788000,45.3125,760.125,-525.0
R,-3.667317076228500,-1.819431547355010,-2.4993182736433100,-2.132966105353930,-1.2170865339050500,-1.9555837745582400,-3.713787040900340,60.75,757.1875,-531.5
R,3.7443177688477200,1.7765155724396200,3.669580403576550,4.488606877668900,-0.22149258696984900,4.6008755334164900,5.38335267641025,26.1875,790.6875,-470.75
R,0.5953557519056540,0.9833438767640720,0.4776404644547630,-1.8817692709311200,7.854356672671690,-1.2827503880742700,-4.67821832149082,19.8125,745.625,-555.125
R,-1.470833791791430,-0.40540430135098100,-0.8845657192926470,1.1154917369620900,-4.160586971975760,-0.21280442113061300,1.8920429664788400,34.0,764.75,-518.0625
R,1.0466011578727100,-2.2962427989746500,-0.7263268601545440,-1.8417984360369900,-7.168324588171470,0.06790993769503350,-0.13404784395107300,59.0,751.0,-534.75
R,-3.6586321346777800,-0.07065886949413330,-2.026193291453830,-1.9320625684878800,6.100486171279010,-4.603793915630010,-1.2234836216263100,65.875,739.125,-551.0
R,5.09998258001656,2.279270364877220,4.012306888700680,4.881518673098650,-2.3235886991612300,8.538391059626620,4.359068284615790,34.0,748.1875,-533.6875
R,-0.9571094563006150,2.406863267691130,-1.5643041714323400,-1.9723397816497400,5.570712957222540,-4.827728791982520,0.38740704374663400,39.625,720.6875,-577.75
R,0.005767142765963400,-1.2697339161033800,2.5983912274419800,1.3758078323077400,-1.3482734704155400,1.396652130426480,-2.4044766232728500,42.0625,727.75,-569.3125
R,-2.1229603836815400,-2.4528219478441100,-5.083384459310900,-4.48489109906281,-8.037468493219380,-1.8715889436514900,2.4517906242360700,3.875,756.8125,-530.9375
R,-0.2904213571427890,1.0841969696847100,1.1976628530704100,1.8350979278507100,7.765603679924290,-0.1445671750573820,-4.450758473622390,9.625,734.4375,-563.0625
R,1.0505646573813100,-0.7730049953753810,-0.9195538148576740,-0.26181651114184700,-7.8484007686236,-0.09753732613331810,-1.5925582274958000,18.1875,745.5,-545.75
R,0.4773170450353170,1.347285393609730,3.2820059765028600,1.5864563643455700,9.235621470613930,-0.33818735315066900,1.4578203225187300,36.3125,737.75,-556.25
R,-0.12462554133286000,-1.4843483878074600,-0.8087055675714240,1.0270118641873500,-5.581567636664750,5.5821370580383000,5.175660681676350,40.375,761.3125,-519.0
R,2.4562139960602300,2.7643068794431000,1.0810028810382900,-0.79071672658536,6.938371007265790,-4.019313772333590,-2.3119206224388700,26.625,744.625,-550.875
R,-3.030274181148010,-2.421520090199510,-0.404684756619428,1.1106955080852100,-2.862892555109500,1.326153914996380,-1.2255237234973600,27.625,754.0625,-533.0625
R,8.277245561430810,6.766484172444650,3.4285525728211900,2.4207993855548000,-4.817830181547650,1.4270492295414600,0.6934925702573040,80.3125,722.8125,-567.0625
R,-10.62136168677130,-10.139928452955700,-7.77346141495293,-6.875059142111190,1.7566830729071100,-5.401450525315630,-2.6415057580853900,66.0625,720.0,-581.625
R,6.164938221462810,8.123351514840340,7.345152585113930,7.387462316413170,2.3534565828869400,6.526831846186440,3.780968477408840,36.4375,751.3125,-530.25
R,-2.437847719735260,-4.39867309253721,-4.034135551337410,-4.6898149685917100,2.6887248138554300,-3.7946160363881500,0.5193422531819880,36.1875,747.875,-543.0625
R,3.830349286757190,4.347462256664010,3.4327162837566900,3.8500351854273600,0.5422274034965300,1.8517633746398300,-1.9497018410067000,28.0,757.625,-532.125
R,-7.5275940937457700,-7.4527478270598500,-4.426203952621950,-5.037660013416740,-12.211295299155400,-0.757077763662798,0.8085395929994710,71.75,775.3125,-495.8125
R,3.3313583032922900,2.9148006104817700,0.7608641610200760,0.24109446419971800,9.622232133843970,-3.552056386665310,-2.700137858763760,61.0625,749.625,-538.375
R,6.9753478192381200,6.033229459385280,7.717248189720920,8.61623417263916,2.9756293783305200,10.431547769723200,6.64716716550192,33.375,772.375,-507.125
R,-8.936347242555030,-4.1112249567437800,-9.623154061195970,-8.814489076757650,-2.170776773395650,-10.40960456966090,-2.9590092248988000,9.75,752.9375,-538.4375
R,-1.6905831032798100,-5.266884066047620,-0.8358727232132950,-2.3244114755514000,-4.362921632802050,-1.494527733341940,-4.750799102348520,53.4375,736.5,-554.625
R,8.401925278185530,6.474081849317110,7.1116878744617900,8.832940688600290,1.0041283269999200,10.078680424644600,5.040573735625040,78.25,740.875,-539.75
R,-6.385831814300120,-1.913819833363890,-4.779945607398910,-6.52957790476904,3.585603837340280,-8.62438053215874,-2.8466909332318500,60.9375,722.5,-579.1875
R,-0.2381526875454560,-1.6157912368260700,0.6177771385693020,1.4872391039901200,-2.9079007362667900,2.9390342092995400,-1.0612325464789600,46.6875,757.25,-529.5625
R,3.012199999585460,-2.238439316095410,0.07316398291034600,-1.2506180122715100,-6.853878625586130,-1.375818116471590,0.5102926762597760,32.3125,766.9375,-516.4375
R,-3.216771232902220,2.260394351417980,-1.0554463682851800,-1.1278499010406700,7.266970967209970,-0.86495063112769,0.47478522677997700,41.0,751.5625,-537.1875
R,4.946086815918790,1.6767719080456800,3.3967737774480300,6.607354924781780,-0.15024000545584500,5.074002895309860,1.6620468506556400,19.8125,732.625,-563.6875
R,-2.872203031987560,1.168394948901230,-1.5546376905665100,-4.433534231681840,1.8683181218789200,-4.081069623756500,-2.6787104872824400,34.875,737.5625,-560.625
R,-6.589883278337590,-8.89561751965886,-5.338284369432470,-4.448019023630110,-5.117516699047400,-3.9392877593106100,-3.940404930904680,59.5,773.8125,-502.6875
R,7.680509668455110,7.6558710039659700,5.507439251720530,6.692901527577380,-0.8899040597754510,7.32327262911115,8.089871990970470,56.5625,790.8125,-471.3125
R,-2.857441969071520,-1.498273697331110,-0.9768397846431100,-3.7434315414106800,5.156445164580960,-3.7597770813978700,-4.899541320256440,62.75,745.75,-545.0
R,4.956176646051130,3.838729819062970,4.763427258278100,6.426395281497690,0.708047112907102,6.112195776923710,7.740441233003170,72.25,740.25,-541.375
N,0.04517813861180460,1.847988989162100,-1.9518897148952900,-1.9074394926385900,4.832946867596150,-3.640292505127830,-5.098083155209500,130.8125,744.875,-530.25
N,-11.881384753665600,-11.443765715915900,-7.789365361169620,-8.026546798531660,-9.465840495552240,-4.436042279933820,-2.399748282278250,86.4375,750.6875,-533.875
N,11.476060599409900,8.066037520907150,8.238361989915700,9.007724406394340,2.1582375184229400,6.922525057966210,3.8293643839493600,27.0,770.8125,-506.5
N,-6.765808344872280,-4.615157359030430,-4.922202569320060,-6.811210413148520,-1.8471918867710000,-4.790261410085410,-2.818153625050470,20.4375,767.5625,-515.25
N,2.151776281491450,2.484388918068170,1.0155144745077000,1.6784607825614900,1.30040931202476,1.1449955730900300,0.13655752121172500,34.9375,743.6875,-547.875
N,1.9852575364154300,1.62540899950941,1.1031249748189200,2.579693380726110,1.4752674501094600,-0.47312720326713100,-0.2526753506591080,41.75,730.9375,-567.9375
N,0.15261692010105200,-1.910473827505980,-0.07271419298417070,-1.2063899639482300,-0.20936945381109400,1.3426615552825200,4.840561026619100,31.625,744.0625,-547.0
N,-1.4163421660466500,1.637658732529310,-0.5067300722810330,-0.1553337556079190,-1.0494580459838800,-0.3470881838895620,-4.366648911345890,33.5,750.25,-537.875
N,0.7749103174736300,-0.8310190884165720,0.15103250873211800,-0.3024587909867400,0.8717004591225990,-0.3179312350713250,0.11199323639940800,35.125,762.1875,-516.625
N,0.20966793882770700,0.2250095736568630,0.8896941865781440,1.3434735627397000,0.5982297791922430,1.207123558686270,3.4685085434309800,36.5,763.5,-515.5
N,0.30185277306699400,-0.025827089721726200,-0.23215816313898600,-1.373635972561060,-1.4274537293420900,-1.9423401881953900,-5.143219096561770,35.0,755.875,-526.125
N,-0.2605995154007110,-0.4700038773549690,-0.6041865818076410,1.3498746543022700,1.3862881561183000,0.801121977321363,4.04217931668768,30.625,754.3125,-527.5
N,-0.284771135954793,1.9618414346606400,1.7936717769464400,0.29553095148908600,0.5796499498994580,1.0613544291911100,-1.3950991794586200,32.3125,757.1875,-527.0
N,5.331226381275020,1.4679991928209000,0.9208370677223220,0.6952452126076460,0.3059363348414410,0.48441981016650000,1.7995584634148800,36.9375,752.8125,-533.6875
N,-5.6402258699449200,-3.4097319282861100,-3.0699533233206100,-1.4272667212927900,-1.1409623628709500,-1.4365389010532900,-1.7669670838807500,33.3125,747.4375,-543.125
N,-0.4804272610879360,1.3802364266660900,0.8145946478862940,-0.9881229689935450,-0.9733075519760510,-0.14072956465724500,-2.196325667855170,23.875,747.0625,-543.375
N,1.24885376570268,-1.8563456512337700,-0.5305884024669590,-0.061437855054209900,-0.08275396896020930,-1.0584471120938800,1.7075219408932300,19.6875,749.125,-541.0625
N,-1.7443309041455500,0.3778770294013150,0.3916051316942510,1.3011237363666200,0.9550462240703870,1.6746214488789200,-0.20990402963609300,22.625,751.0,-536.4375
N,1.9780104452126600,-0.24810747271172800,0.24352528064017600,-0.8341263802025320,-0.2440369873746000,-1.3287132973757900,-0.3908854757869000,18.5,746.6875,-544.375
N,3.761587973272930,5.888306614859160,2.3392578723254200,3.7295623379415500,3.3847243780858000,3.362187047151970,3.836685530491660,12.9375,746.0,-545.1875
N,-5.588382284392450,-6.843060335329640,-2.7546081811950100,-4.607169389079100,-5.023982946855390,-2.1682453281830000,-2.0055599038743200,11.9375,746.6875,-545.1875
N,2.2265288456070300,2.624472940004160,0.15663938137907200,2.1300135512371800,2.3158790517407700,-0.898100433186708,-1.1966466700578400,14.9375,747.0625,-545.0625
N,-1.0197775020995200,-1.4207936278322300,0.06144093893785980,-1.3337328311703500,-0.8154202313628710,0.21532845499238600,1.1309464546862100,16.25,747.4375,-545.625
N,-1.6232755428944900,-1.4376901786088900,-0.9772442048270230,-1.360339430881000,-1.7738758459947200,-0.5566982755219810,-0.9771891747874440,9.8125,747.6875,-543.5
N,1.6345780077561800,2.098038980109470,0.7049975081917320,1.2903847070224300,1.509627935011210,0.13274384993187700,-2.916515514462430,8.125,749.0,-543.1875
N,-0.5946514533947230,0.713410646953956,0.14977145416040300,0.3435802699760640,0.37879346807742500,0.10150103384515400,3.011708087662790,10.75,750.5,-537.5
N,-0.9458461705525380,-2.6251437192151900,0.3606289204701230,-0.43761692155667000,-0.2234499900684780,1.120273690947460,-0.313819782618325,13.125,751.1875,-539.0625
N,0.5876121569155720,2.2636705628605700,-0.39261979494655900,0.023271708374541500,-0.2163652389454100,-0.29489137965744200,-0.5696165915158630,6.75,748.75,-543.125
N,4.286040335270510,1.0373755889782300,2.914864129783970,2.0351189540098200,2.0035615485406500,3.310041823600160,3.208029548262760,3.1875,748.1875,-542.8125
N,-4.382508019326010,-2.328840355236290,-4.149170683669270,-2.3494340815375100,-2.398278575708680,-4.9899434511723000,-4.927387413672620,7.6875,750.25,-539.5625
N,1.3504200947216100,0.01827887345246420,1.3745029887897000,0.25752918392663400,-0.18461316921347800,1.0722061028114400,3.249016785885020,15.25,751.25,-536.25
N,-0.018039893886562600,0.44754907915117700,0.1270614855049560,1.1222254386867900,1.1702008284703500,0.5732486704511940,-1.0941405072733700,15.125,747.9375,-542.6875
N,-1.055151012487090,-1.4418387463087900,-0.5436811340881940,-1.8495831767673200,-1.3876296274159900,-1.5262681643433000,-2.2732076874356000,8.375,743.75,-550.625
N,1.6404028027080900,2.092665976235270,0.7440522898288010,1.2327963845792300,0.8795951099004100,1.4454315169841600,2.210922079194050,0.625,741.8125,-553.3125
N,-0.04542908952087090,-0.993789925032469,-1.3390269522444800,-0.6413815724510950,0.5156560121736190,-0.803648675103745,0.2252877332493300,2.5625,743.625,-551.375
N,-0.4379467509704950,1.8551412458634800,1.9347922033993200,1.9083210005130100,-0.23585769692820700,0.7794337512408570,-0.9340205376098020,12.875,742.75,-550.1875
N,-2.313939428535850,-3.0178082941504300,-2.0414648122977600,-2.281765322009660,-0.7143630120461290,-0.030390908446696900,0.8582371010657760,15.6875,741.5625,-553.0625
N,1.915814811194890,1.6042178114233800,0.2767583144770690,0.6046594616038340,0.3193522475754650,-1.344332151592110,-2.2957328725074500,5.6875,738.875,-555.75
N,1.2610015802374200,1.2397920149615900,1.0382876008142200,1.6210113795175300,0.33576361487835600,1.9634563906476300,4.208136504691020,1.5625,739.25,-557.0
N,-0.28437269621737200,0.12094696815985500,0.5598652788512180,-1.0256179934694900,0.3748757579436650,-0.36722253481838600,-3.164813485055450,11.5625,744.0,-549.625
N,-1.8799638541501600,-1.0764446071261000,-1.2132394887884700,-0.7240923853795970,-0.609804771503842,-0.8949687760034550,2.4677814562330800,15.1875,747.0,-545.875
N,1.4158353068851300,0.8308215067335630,0.9448129096990190,-0.05255730381936620,-0.5562013589421130,0.5112496588755960,-4.217632476256720,14.8125,746.0625,-547.125
N,-0.3147240289642330,-1.3210900892765900,-0.475678308439116,0.9521661216080340,1.0122250286295700,-0.5597574282395820,4.638939089643300,6.5,739.75,-557.0625
N,2.3214337377459700,2.3980755535578500,-0.40636914662461300,0.07516158700252870,0.17186375296302600,1.595648603069760,-0.861705704310136,4.9375,741.3125,-553.8125
N,-3.4908019775401300,-3.640925628915760,-0.41152552291696600,-1.504287490989830,-1.0881267214716900,-3.4056418498234600,-1.0818183338082800,10.375,744.5,-549.4375
N,3.3586603636856200,5.104122486160250,2.1774184558047500,3.507640781761010,2.6281865940770300,3.8879726126846500,1.5111981582510900,10.3125,745.5625,-545.75
N,-4.045099624633510,-6.288083902536810,-3.4253694872230400,-5.806384898378550,-4.373568024696870,-3.244119719758140,-2.298542621622120,11.9375,742.9375,-549.8125
N,1.7431137082839500,4.12924727873275,2.709975049962430,4.158753547148750,3.0489932270654500,1.9752920144674900,-0.1682230719568570,8.8125,740.125,-555.1875
N,0.5300499889401660,0.21459953957365700,0.7580506917299940,0.6180424304579380,0.2806445244471840,-0.15423114366406100,0.8851761276871200,4.9375,740.875,-556.6875
N,-0.30361878249732600,-1.6743775893102900,-2.992470220944950,-2.0369500272067100,-1.2848262315290900,-0.45414566453180100,2.375363252291200,2.8125,741.3125,-554.0625
N,-0.7718671284293060,-1.161936536308740,1.374207278416680,0.16012902480296700,0.2856349312413620,0.4691815830226970,-2.515031767947900,3.75,741.75,-553.125
N,-0.5272112287505630,0.032900489086604500,-1.0586988793067500,-0.7448855794727300,-0.3652596735999360,-1.4687796250054200,-2.4267765376063700,5.9375,739.25,-556.6875
N,5.906672398627260,6.378481886926490,4.19205153425435,3.8678217512413800,3.1085789453857400,2.7253846883983500,5.044798249403820,7.375,738.875,-557.625
N,-6.032189750035610,-5.53219635573731,-3.965559559281850,-3.221094145180280,-2.5719856343258100,-1.7119387992071800,-2.332208882407980,9.6875,738.75,-557.25
N,3.0803725185489400,1.8223533584293900,2.2462634447065000,1.2295311830436900,0.6020381538879640,0.8922690249030930,0.8810236850320890,7.0,738.4375,-558.6875
N,-2.339183027422770,-3.648219046986760,-1.772763394223400,-1.9478744105993100,-2.096722414685400,-1.895973998867160,-4.14917435283346,3.9375,742.0625,-553.375
N,0.42150345496275800,3.6690785435080400,1.2863935037788400,2.1298164193085000,2.4746472454650100,2.130226193165040,4.693113562612770,1.0625,744.3125,-549.375
R,1.1771014528017900,-1.1081916363200600,-0.8734253070177400,-0.220945085485057,-0.6401520805550220,-0.258708915747563,1.3219682346518200,2.1875,746.375,-548.1875
R,-1.5093902741078500,0.1636910945061990,0.6260760553974690,-0.06547805020808210,0.7364470708432130,-1.9523204010966800,-2.6397920349718000,7.8125,748.8125,-543.0
R,1.0876209202348200,0.7463438517887430,0.29898907635150900,-0.7012356107448860,1.53001733757571,3.5816596399057400,1.3879461254574400,9.9375,752.125,-537.6875
R,-5.531390550375320,-4.932309494107500,-3.5947007856955000,-1.1379209459369400,-3.1727827549461400,-4.716348800711690,-4.709005573023300,12.5625,742.5,-552.625
R,6.087018598890280,4.593453064040530,3.108541585712320,1.2817976829166000,-0.467178418888584,2.825017991593770,4.249676972570750,28.4375,751.625,-534.8125
R,-3.334631371185460,-2.8086641399998900,-1.271278120579540,-1.8709787750780900,0.937011319409294,-1.654647614929970,-3.4318346554490400,27.4375,742.5625,-553.75
R,5.7674554404051700,4.101526351862270,3.1104443585601900,3.5479569644168700,-1.9142334635118,2.0525014031100200,4.584012284502120,43.9375,771.5625,-506.5625
R,-5.00055637797215,-3.7695631535346800,-3.3517864540479500,-2.7603411646144600,2.599161956509430,-3.0488766940621900,-4.4558088171686600,52.1875,746.375,-541.8125
R,-1.6279208852956200,-1.9759903664217000,-1.3869260250035000,-0.9926343607532750,-5.857587183237960,0.45618170329522900,1.6585311432321100,20.5,757.4375,-528.1875
R,4.75168590430142,4.921371539161220,4.810697121887680,3.874119094003930,8.209394308156840,4.687097446895490,3.443098376642310,15.5625,730.4375,-568.125
R,-1.6088622115099900,-1.3526810206659600,-3.3058650386940800,-2.6372541984419900,-4.836949942415290,-3.9422843422776400,-4.825150616668200,12.5,759.375,-528.25
R,-3.161094825792080,-1.4643254725549200,0.6698184550590150,0.5373720058112800,3.4651049028845600,1.6861446048078200,2.7794075916538200,16.75,748.5625,-542.0625
R,2.448899749838370,0.4106603257539660,-0.7481251196531960,-0.8732259556746540,-3.6079214567796000,-1.2108971587476200,-2.431802683335990,20.375,761.3125,-521.8125
R,-0.3513183595151720,0.9653960723365200,1.5178564030170600,1.2519639057503500,3.007553904809490,0.7182410621645050,4.362336089499760,12.4375,748.1875,-540.875
R,2.646803310395270,0.796694307984968,0.10299092417152800,2.05513097457009,-1.5089810802877200,2.7257049758458600,-1.3714095707506700,23.0625,752.3125,-537.0625
R,-3.578375837623930,-1.6044259054148200,-0.858596026978071,-3.3029670691309300,0.9793667753255600,-3.3159167134337500,-0.850494731252522,40.5625,738.375,-553.4375
R,-2.5064037485737600,-5.089891445760100,-3.854092728185030,-2.8347767938799400,-8.186661527527380,-2.550919151788540,-3.264111462126490,36.0,761.625,-519.4375
R,4.078052935384680,6.812319872157090,4.959158914109170,4.12325018112572,10.842833794698700,3.523424229962070,3.300014287754510,33.4375,764.1875,-522.8125
R,3.3532252727342200,3.300015921102200,0.2620727265178380,2.026083169128570,-6.688889745298240,1.2054536696156600,1.9604834626878200,26.9375,774.0,-503.0
R,-5.354273778346510,-7.246506126981300,-2.209601020424330,-3.5460270825931700,4.228239192183060,-3.5077863348321900,-3.8483962797444600,21.5625,756.3125,-531.75
R,-1.679092916062820,2.297640467831910,-2.9946351547851600,-2.1328951754973300,-8.225354828153230,-0.052577644938011100,0.371118058391506,44.5,748.375,-540.5625
R,8.58382519823842,2.491683277068110,8.859982127899650,7.201066824011730,11.680332202243100,3.3798216153628700,2.112140540215130,44.25,745.75,-545.0
R,-2.997210196787330,-1.1135058385000800,-5.018137483807870,-3.429557332969820,-8.495534068626340,-2.459242908940530,-2.472328868350360,24.125,773.0625,-502.4375
R,-9.4318168828188,-6.6899927683058300,-6.267662984205090,-6.111932751219210,1.2204805668619100,-5.467699452197590,-2.802783283185410,67.875,759.625,-522.6875
R,21.840612531357100,19.669631934223200,17.71886308664500,17.19995732422670,9.637154960040460,15.708466742592200,9.910223970071070,83.125,750.875,-524.75
R,-14.986098617263800,-15.855743367067600,-11.037349958493800,-12.54233434154040,-5.211683395376640,-10.543188822336200,-4.871221047994550,91.4375,745.25,-540.0625
R,-3.1008730501812300,-2.261385066830520,-4.453119961802840,-1.8970412154209400,-8.054969870575900,-1.7293664994293600,-4.8452674574000900,55.9375,775.75,-496.4375
R,7.025669585509810,6.185656777703220,6.39435822520894,4.227488546991460,9.849970859084250,3.2380968504428200,7.063886168953920,31.9375,745.6875,-550.6875
R,-4.706374727239930,-1.5014653864210900,-1.73397815434756,-0.5188954544908940,-5.203440812086890,1.2627713380488900,-1.365544042988090,38.75,787.5625,-478.3125
R,8.38539718364978,5.973033033102540,2.3497647768602100,2.139969756747280,7.229794024963570,-1.2872889661195600,-0.8224961798468010,45.25,762.1875,-527.3125
R,-6.387002232886030,-6.045642340174490,-1.4976725170981800,-0.678050283668947,-5.356345946346550,2.9245008137542800,3.5644081928674800,51.0,792.0,-477.3125
R,-2.106124714822480,-0.10030785327255700,-3.3281328261017000,-5.088656127908040,0.20823843997471700,-6.215628626124560,-7.564965753694610,43.875,768.4375,-513.125
R,1.9604380211280800,1.3137663344290900,3.991450546952930,5.421909898028830,2.935795881861240,4.8710556036668200,4.749138290455490,51.8125,773.4375,-499.5625
R,1.9645187703874300,1.925202412432180,-0.45324559110510000,-1.2010184845123800,0.15364735746881000,-0.587044887263126,0.4983821282690520,33.5625,769.0625,-515.3125
R,-4.221336864298720,-4.666691369721720,-0.3967304418547680,-1.0574292682728600,-1.0189861301278500,-0.46508620268173600,-1.2514805597097400,47.5625,762.8125,-515.75
R,2.109573502539130,2.380156368885600,-2.3470597102770400,-0.4616887382971740,-4.6886731584906500,-1.2686174238157200,-1.2980613580409100,31.75,763.5625,-517.9375
R,-0.9515888156422820,-2.324483030308400,1.9903260051291600,0.6136971107249040,4.479718508827600,-0.7814263503092170,-0.06354101372588910,25.875,755.4375,-531.25
R,5.607376193749590,5.460513321299780,0.7099431951610490,1.368323953416600,-4.1013076793339600,2.1199903703420600,3.3926868057659800,57.25,750.125,-535.4375
R,-7.117558699723230,-5.9185312954089500,-2.002890427831880,-2.872919932341670,2.658948304734090,-2.8925001924593800,-5.82965647215536,68.0625,733.5,-560.5
R,3.6728888302407900,3.1306203236620500,0.7856373437391700,1.8954031924070300,-4.651199055770730,3.5169173865131400,5.184682207114710,39.25,767.375,-510.375
R,-4.039159273376480,-3.9188469514629800,-2.1619605652692600,-3.4127837609231700,5.066012404125980,-5.213163731348930,-6.510646900165780,39.3125,763.9375,-517.75
R,2.598372354709180,2.24751602286799,1.4645523930695800,2.893831164421250,-3.293253314278840,3.9988565053192200,5.245065950674560,43.625,752.75,-533.1875
R,2.2825891996573300,2.2997234244185700,1.8653501323218900,-0.7960094610011280,4.2982837809310500,-1.1600593796098200,-2.8101592843305600,28.1875,742.375,-548.875
R,1.4680110917294500,0.7566992160383440,2.895835829910270,5.66508838251674,2.6919153816322800,6.14972404517557,7.8535525093591300,25.75,753.875,-534.625
R,-4.499305112708300,-3.177637042384360,-6.184421804870900,-7.853138836066150,-5.520085430409570,-8.080714683086650,-7.275775191983570,56.1875,748.5625,-537.9375
R,2.80034810312156,3.0959389143443100,4.2929050433212500,5.647110128109600,4.331740703934420,4.694615719662910,2.895449059117570,43.0,773.8125,-504.0
R,-2.4992787031689000,-1.500570663963960,-2.641361978923340,-3.5196316829452200,-3.3404204984349400,-3.2530429691760900,3.0740146676066500,47.625,739.4375,-557.1875
R,-0.27744486383765700,-1.9116331758533200,-0.13177773020479600,0.7630787690061090,1.4577676166530700,1.5942987704816500,-6.42514974569688,61.25,734.625,-554.75
R,6.08885181280755,3.771364308180250,3.18637252204485,2.5176376183571700,-0.22358067610240900,2.389911882242870,5.603596143271250,23.5625,754.625,-535.0625
R,-6.014525810635260,-4.212947584010740,-2.2251718365686600,-3.2787241326424100,-0.0008502487175815080,-3.0167873372340300,-5.8621756246576300,22.25,749.4375,-541.1875
R,-9.920481311852930,-5.9524432597224700,-11.647349328282200,-6.975991473593590,-11.13274917288090,-8.592352901131060,-5.347063327864610,29.375,755.0625,-530.4375
R,7.835071894801660,1.6681805837206500,10.166802534213500,4.254534873697430,8.68776374737404,7.8259728914936400,8.027993912081700,60.375,761.8125,-517.4375
R,18.105777751059000,16.714979191910900,11.728833532061400,13.445373749310300,7.375429614078160,9.299663729937060,6.272398008574110,74.25,768.875,-503.4375
R,-21.101438126374700,-14.605076404969600,-15.189222972992300,-15.28920981569640,-8.629328249837710,-13.658020077651000,-9.494602102388170,67.0,754.75,-530.875
R,5.333669629814370,2.3092996465130500,5.671196157315270,6.677924489828970,2.1719742386111900,8.082740621776980,5.935436542361900,59.875,775.75,-496.3125
R,12.160326726697600,6.321575362579160,6.3074046990551600,2.8922223104132400,5.060799120608360,2.419883605114790,-3.7568962743413000,47.9375,775.0625,-501.375
R,-18.06279371809070,-7.472758123109960,-11.245306766305400,-6.028647415606990,-5.301113330179570,-6.773395783203420,-1.710139001960290,61.4375,770.5625,-512.25
R,7.344528750518990,4.02510360281325,4.124809903087240,3.2069863513579200,2.8298501591637600,2.1610309193861500,3.5969284541034000,81.625,756.25,-521.8125
R,2.4560819824741300,0.22011186633352900,4.631763363899690,2.1001098640727600,0.9856835225466160,2.2553519561118900,3.4776955335948000,88.0625,754.5625,-523.3125
R,-3.6089729059713900,-0.6746136829130910,-6.407424852808930,-5.132966938021930,-3.1007146117996300,-3.60109150508668,-8.099233791784060,53.0625,749.0,-544.0625
R,0.3173413805822180,-1.1432650309048700,1.3138649465366400,1.5041435583371700,1.7467876293760100,1.412760445905910,5.206733841460050,49.125,754.4375,-531.0
R,-7.652927112324530,-5.00578906887283,-4.241269748687160,-3.8515127372485300,-4.8191986614933300,-3.35763132627592,-3.447133337491920,66.125,757.0625,-525.5625
R,13.545090639105100,10.152647300533000,9.103217881475120,8.645719721215460,8.589526872133610,7.020652995925780,3.0472132054927400,77.5,726.0625,-563.4375
R,-0.3083926929773280,1.9407191223271600,-2.7361484468319600,-2.1031607592233200,-2.221566372691660,-5.080108619397890,-1.2870102390389800,58.3125,747.1875,-547.4375
R,-9.42700343402603,-11.139774471691100,-3.0969493446336800,-4.193860674117400,-3.9743847987300900,-0.4502573802632000,1.1937067491267600,66.25,750.375,-532.625
R,4.295974245785160,4.5986601470103800,0.8738362898785070,1.0766078757516100,-1.5484187465750000,1.9458785785154000,-2.163927761496170,46.0625,769.8125,-508.1875
R,3.0536886384020000,3.3072857383846800,3.4732595495452000,3.5072397272416200,6.318469584841220,2.344820065309370,3.1423359877742600,51.3125,721.375,-577.125
R,-2.4807631366725200,-3.2469869806549900,-2.8895802427966700,-2.7410823152978300,-6.6381205822122800,-3.134229020630140,-3.7346639432084900,35.75,772.9375,-499.3125
R,-6.256184068500180,-6.987305253816600,-4.433689824024350,-4.816325650464240,-1.0910016881429200,-3.6819072174593000,-4.0585403009868800,52.4375,739.625,-559.0625
R,4.702788149389380,6.040103635685400,4.093358615043570,5.097322181143470,1.7486170966243100,4.799028569743310,7.6728482033478100,41.125,776.75,-495.3125
R,10.225552004389700,6.000418762469600,6.63852623991567,4.182647281812890,6.640167656548790,3.7834568830574400,-0.43847744029265200,62.8125,765.0625,-514.8125
R,-16.159865834696900,-9.640295959739450,-10.259668465276000,-8.183657437219870,-10.41594607945310,-7.415690085264120,-4.187285040128020,39.0,797.75,-471.25
R,2.690570346188320,1.5009176050943200,0.7223442261116910,0.945707614860271,5.145489845065420,0.24541447981810100,-0.186804883013815,37.375,769.25,-515.75
