timestamp,label,F3,F4,C3,Cz,C4,P3,P4,accX,accY,accZ
0.0,N,8840.93251875123,8901.215575896467,8031.820092580113,7568.519630474394,7798.356917468585,8839.839831916082,6604.397614445736,18.4375,808.8125,-459.5625
1.0,N,-839.2820687938287,-857.5820283921208,-672.106044875558,-635.0454402414902,-651.8559491420318,-837.5351820809731,-552.4447906669916,16.0,809.625,-456.6875
2.0,N,-562.3543827543508,-568.6960043262548,-496.9543398894267,-464.72841049048344,-482.4058034204189,-564.2880801808185,-405.34887350863073,14.1875,811.625,-455.25
3.0,N,100.66307374292876,103.22295241147631,86.14175543557371,77.13184293640586,82.49297457735972,102.4154371014426,65.23983284991803,16.9375,811.625,-452.875
4.0,N,3.0970982711571406,2.280203230234235,0.8310611874992542,3.317542598542413,2.6615474010178595,2.1235730875401186,3.2941209846245254,14.4375,806.625,-462.625
5.0,N,-2.422739520813601,-0.9577539127364824,0.030344400823239765,-0.727899333211501,-1.090583506924147,-0.5824165303027723,1.2160162774498753,12.875,808.0625,-459.0
6.0,N,-0.007042636577671715,0.42256834322347414,-1.4169967682034363,-0.980679621522147,-0.8579341612387384,-0.41520796288422207,0.982324278273547,11.625,808.875,-460.3125
7.0,N,1.288425926686146,-0.1086410074387386,2.6169917177659054,1.1698255943340536,1.7014949752697681,0.9567532727113749,-2.9857239734054244,12.4375,810.4375,-455.375
8.0,N,-1.5719506089548696,-1.0293895800720956,-2.1332009592860213,-0.7477599462939972,-2.0349835703681416,-2.1272776160126377,-0.7034570762805474,15.9375,812.0,-452.5625
9.0,N,4.316183279496912,3.4044628048199823,1.5377659886354162,1.1848494217299286,2.0696145449159467,2.2080077804278933,1.081268557135328,16.5625,813.1875,-450.875
10.0,R,-2.8442369792873405,-1.8419449734019622,-0.4470626706180782,-1.3899906066671421,0.20262658807932302,-1.6274554388848048,1.5133153712751055,16.625,808.625,-457.875
11.0,R,-2.925553922037469,-2.4804612889905537,-3.2568704353773197,-2.4213727412219392,-5.6982669500122265,-0.3166991526941156,-5.608463279741094,16.25,809.0625,-460.3125
12.0,N,2.5336343226916256,0.8643683638035959,4.02219885712076,2.3459247806773385,5.008504622283768,0.8863008262427882,3.3040853766031577,21.5,805.125,-465.25
13.0,N,0.019557831783540224,0.2628185426533405,-3.3028491189379974,-0.24307823842823523,-1.626653242287928,-1.0303764158156048,0.964002291999303,23.5625,799.375,-474.125
14.0,L,0.3485119104260282,1.6155662022808495,2.359874703095198,1.427893770459315,1.845339158668385,0.7195186654937179,1.810083279918168,13.3125,802.3125,-470.125
15.0,L,-2.0079512462517983,-2.364272193455629,-1.3102900074018813,-2.514014519332377,-2.3380280303327736,-0.24198597170137623,-4.244996238031788,18.75,806.8125,-463.0
16.0,L,1.02072098583103,1.4504120765798456,-0.7056411727632536,2.07440415534958,0.9303960913350559,0.5968333500075973,5.6441906047345825,10.4375,805.5,-464.625
17.0,N,0.8517560465462352,0.9208303948914447,2.3124619767500576,-0.0007687593508323971,1.3624420248917248,-0.7939091013018592,-4.768113678641017,10.5625,794.0,-479.375
18.0,N,-0.4477527949087769,-2.0105895410536494,-1.3540173800303128,-1.5932107232839277,-1.8572648522862356,0.12751686184580263,0.5358732071703541,6.9375,790.5,-488.625
19.0,N,1.9456162781434336,3.1347195528953824,2.0405740502154672,2.908006245846924,2.090515050779239,1.574192641999983,3.353080310305018,7.625,787.4375,-489.75
20.0,R,-6.387471849568748,-7.554684671518007,-4.2946368434612925,-5.16404433661048,-5.1574309924639135,-3.02897061018846,-5.379580463313326,2.0,785.375,-492.5
21.0,R,8.34952738852095,9.749132947814932,4.385650069961809,6.606491294379759,7.908261371007315,2.950285796637408,5.5069947733226305,4.125,780.75,-501.3125
22.0,R,-0.8199414644945837,-2.4988896288833313,1.102324305521185,-0.9544721562640971,-2.987797358633747,1.5244354275982805,-2.0193605021770646,-0.4375,773.5625,-503.75
23.0,R,-2.677081698594882,-0.8815568474389843,-2.016111185791685,-1.8119409893883143,-0.5654430204615114,-2.2408258311444387,-0.6166724150862358,5.0,776.9375,-500.625
24.0,R,-0.36339320342150494,-0.4510437046562274,-1.5332935654675066,-1.0087613685434582,-0.21649570912521518,-0.8185845081354355,-0.03060924588370699,8.625,788.375,-486.75
25.0,R,0.05866116739598397,-0.19414806777637023,0.17339805402083924,0.8539254624684989,0.3749359784088021,1.0506146967947383,-0.4407697777204505,9.4375,785.625,-492.8125
26.0,R,-0.5271267513603566,-0.7630093135741004,-0.13690383418078592,-1.760336209127811,-2.3303600155870567,-0.46989624179966427,1.0970255161199614,8.1875,776.375,-501.3125
27.0,R,-0.5678806111917174,0.08577605102106213,-0.4607252917911226,1.0848462462023498,1.1825239193579387,-2.289137346700399,-3.191349652645668,3.6875,782.0,-497.125
28.0,N,0.40329191674320736,-0.8655948615310352,-0.0010087417668686101,-0.7970651811792189,-0.8882812150745601,2.1135053696828408,4.749528798406378,6.8125,777.0625,-500.0625
29.0,N,0.8747136919535203,1.5638983294436066,1.2896532189675405,1.2708181849653608,2.265240450832837,-1.2399082822860779,-0.6486723104207904,0.8125,782.6875,-497.625
30.0,N,-0.610920745417649,-0.3193403476475412,-0.942079914154732,-0.4104103647727584,-1.1625256221767846,1.1743359278814325,-0.07213710123358397,0.375,785.3125,-493.625
31.0,N,-0.9204675754570266,-1.9214495728453607,-0.5353981719210881,-1.083570951247971,-1.0099545366481475,-0.44307323798650716,-3.46499595763621,0.5625,788.375,-489.1875
32.0,N,1.7591496370220479,2.861958203988526,3.1186425946449323,3.0138909469209993,1.9239200271287995,1.1022058943699404,1.3491532650950497,3.8125,785.5625,-492.375
33.0,L,0.09749822095033601,-0.3406305682304633,-1.6578280047652048,-2.0461990668286405,-1.2536874566747942,-0.4133808875552977,2.9768730580396014,10.0625,782.6875,-494.6875
34.0,L,-2.7067211114772163,-2.3483896181407107,-3.597475960845427,-2.636467087007151,-0.8901600915906822,-2.374487748584634,-5.56061994978883,11.3125,784.75,-493.5
35.0,L,5.07863363022747,3.396222813718928,6.040098963060236,3.866928960665501,2.1488143835606546,3.0856558309949227,4.580264432536151,17.6875,794.5625,-477.6875
36.0,L,-5.336812540567895,-3.488778351479118,-4.255913682613551,-2.2180179582208357,-2.6533843814680713,-2.3855672755714377,-2.1882590443115943,-0.25,782.375,-494.5625
37.0,L,4.104877196536005,3.030392325943269,2.777140164479902,2.0244257286619605,4.585056800058795,2.49155330787663,-0.9283224302936722,1.875,775.25,-505.5625
38.0,L,-4.544857849626202,-4.290193730600522,-1.7422450517351262,-3.1730957507302406,-6.019741800157668,-3.2480467837118194,0.40790041158699203,5.9375,791.75,-485.125
39.0,L,2.002129286442362,2.464537354572427,-0.5052226094289562,2.728576671377317,3.5487950072572794,3.401472869554625,3.6315776262200288,15.0,807.4375,-459.875
40.0,N,-0.8447275118086777,-1.2814438138124424,0.2528012655493931,-1.0937506615478025,-1.3656204600220347,-3.019267728596393,-6.62618502753671,13.8125,777.875,-502.625
41.0,N,3.086985613787705,2.8581808835113853,0.7333386481403149,0.266320754428277,1.413458198648878,1.4990361479203005,5.388545144636838,14.3125,780.625,-497.8125
42.0,N,-3.5749737528567964,-3.5935998372125435,-1.3180166912849354,-0.9908099401761455,-2.273229662960161,-0.15670163271161175,-1.9557183791266781,7.4375,803.875,-467.25
43.0,N,2.080964433972409,2.5053346545383652,4.43725871020766,1.1180509173488147,0.7802550350462661,-0.24732008385903834,-0.7688335617856581,15.3125,797.875,-476.6875
44.0,N,-0.09252909516570003,-0.4291119023262952,-15.754776232836369,0.11649371220697412,1.068701094987152,0.47647360023999263,0.5580683855920465,10.1875,787.625,-488.25
45.0,N,-0.7069798044025619,-0.13030026361971228,18.261385578782697,0.9352309618033482,0.2499305196948733,0.5761657078204495,4.67881592120778,6.8125,782.875,-496.3125
46.0,R,1.6671080789653114,1.1497181567048687,-4.699882728402485,0.0521695837330999,0.3823305360399971,0.8962915215649312,-4.574335067812144,10.3125,782.625,-496.8125
47.0,R,-2.146251156356793,-2.5164179070175985,-2.6787399194313313,-2.977594001053384,-2.691877373421116,-1.713273535242755,0.17835990981990768,16.3125,787.4375,-489.6875
48.0,R,3.217211160519697,4.985954342253755,0.868556500618799,3.8045588221871025,4.210037831610154,-0.1739132542838687,0.10625032997448397,18.0,795.25,-479.625
49.0,R,-0.7657139734524672,-2.9917117012502223,1.9113577543585385,-0.7897779289726304,-2.5148175543191167,-0.6158877969152277,-1.211390133965061,11.3125,789.4375,-487.9375
50.0,R,-0.9102201560029,0.1890466119639416,-1.876948880510442,-1.4410726048593214,-0.9128855442185079,-0.31686176388031984,1.931869053123355,7.3125,785.5625,-492.6875
51.0,R,0.09073767602902286,-2.427253609292275,0.8468046006221369,-0.11972070351804194,2.6970006390497616,1.3732070358290303,-2.110184295616721,7.625,779.5625,-497.6875
52.0,R,0.7933251700980514,1.9711864958959877,1.259970710750961,1.9749236893702575,-4.123339566835714,0.8670115059166535,1.8438820583620101,14.375,772.0625,-505.0
53.0,R,-1.613908152792288,0.3111938556649486,-2.368535375570724,-1.373654131879931,4.705592397834444,-0.5088993245526717,2.0843923504483954,13.0,778.625,-499.25
54.0,R,0.001818503047631566,0.5627270945253652,1.7634877059027425,0.3814661722641637,-1.6888969950054604,0.08231124781531315,0.8956318660857678,14.9375,779.125,-497.625
55.0,R,1.403149951046088,-1.1596772104098914,0.5096937199178383,0.37799378068485245,-1.8035921865012703,0.6415040645634394,-3.2370998396047788,10.6875,780.125,-497.0625
56.0,N,-1.003078585825269,0.08209857633983711,-2.1724543207874225,-1.656771633415081,1.0495556930979149,-2.0694824722258933,-1.7543305132287805,23.25,779.25,-498.75
57.0,N,0.43908884046678304,1.2183776049139758,1.5392092929206538,1.76994699021197,0.4061442031406314,0.7238200944597831,2.2625244646366243,14.125,780.875,-496.5
58.0,N,-0.9645463868986843,-1.4991093336051717,-1.3484822084806283,-1.7130078623711067,0.506440425206152,0.2345496359067413,0.48977941159750527,12.75,782.625,-497.1875
59.0,N,1.1021451341864403,1.0620263044538638,1.5189258760989441,2.0077315169173136,-1.107994622945031,0.8123692250416613,-1.1675471985053252,11.9375,781.875,-495.0625
60.0,N,-0.21021217413046178,-0.46100907504050176,-1.1885963539021556,-0.9420487914758112,0.347291837336772,-0.6782091799944039,1.771454312185949,13.5625,780.4375,-496.3125
61.0,N,-0.5893446939138225,0.5906932251588235,-0.28207061195231325,0.1392600363658271,0.5004667762160179,0.09485625785150137,-3.0620368516292995,13.375,777.5625,-500.875
62.0,R,0.879022245084647,-1.068132981140083,0.936189480453339,-0.6840890235278421,-0.45877811686548126,-0.11775088753373808,1.0608534846294544,10.8125,783.625,-493.1875
63.0,R,-0.07575267222573734,0.7521478151455998,0.23429580664461513,1.6437358607260115,0.6777289702769979,-0.0034753853191596138,4.6707186045524125,7.8125,785.0,-491.9375
64.0,R,1.8743951053228776,1.3508883750031637,2.530079892510168,1.346848285482274,0.6379185927268705,2.101727354970234,-4.7281821107551245,-9.75,782.625,-495.8125
65.0,R,-18.686914444706265,-7.580710818091246,-16.020295628248874,-11.682416199401686,-6.332353367492867,-9.074286293047956,-3.636389756813092,9.9375,775.875,-504.5
66.0,R,25.054718098855684,6.883452275413737,18.075080966631337,10.205193162884978,6.502513876813254,6.945281269044456,4.50474094269791,25.0625,781.8125,-495.0
67.0,R,-8.809955659827962,-1.812441226295725,-6.052547788193291,-0.3782030869789562,-1.196147246323876,0.21119427661924497,-0.597600787183061,32.625,778.6875,-496.375
68.0,R,-3.5583589032396628,-2.3706336684211338,-1.707398715894925,-1.9258237693715565,-2.2474119514146107,-2.1760706923603275,-0.7722334270394663,15.9375,776.5,-500.9375
69.0,R,4.555840647355286,2.590453755147826,1.6197689847055354,0.1768418126027982,2.746443566497469,1.6163898725835852,1.5832845349997784,23.9375,781.0625,-494.8125
70.0,R,-2.8581218256764194,-1.5032955030116235,-1.3957658353829678,-0.596893450880603,-3.465020901370784,-0.9390922348654869,-3.641406541759334,28.125,779.625,-497.125
71.0,R,9.020963519678135,5.475468868035264,6.316124671525636,4.612637680466085,6.497544055370067,6.075545282129507,1.5039199497935505,16.75,789.875,-484.125
72.0,R,-9.018949374766285,-4.39434839760138,-4.96278165308004,-3.8558158898715167,-3.512794188791483,-5.663501495270439,1.839527744901261,16.3125,796.5,-479.0625
73.0,R,1.0887455519782514,-0.10117316188952598,0.7868095257074138,0.4748276841698481,-2.654299314071416,0.18379221512484537,-0.02286224140644913,22.5,800.4375,-468.1875
74.0,R,3.3713883894230277,3.3143261377415327,0.9156431597952263,0.7460934703439285,4.734293161290742,1.7997168186717842,0.16921619276466346,16.1875,786.0625,-492.125
75.0,R,-2.7064175409261653,-1.9389809085355874,0.7653963318858827,0.024746909674180643,-1.6834610937471393,-2.038897693649609,-2.0537397183954496,14.0625,789.0625,-487.4375
76.0,R,2.632477610972198,-0.7176664009171879,-1.8082918818428912,-0.1917904976428299,-1.7821098502576247,-0.1831641719378297,1.9407955100840237,13.8125,798.0,-476.375
77.0,N,-2.9956592743341317,1.2775828737844142,0.5684801075265022,0.07752727485817604,1.8519280996310385,0.38177507653198384,-1.2980142466001952,22.875,787.875,-487.5
78.0,N,-0.08206486795541242,-1.1566343180390009,0.353481056632749,-0.29954196269342853,0.10102468218354772,1.3675593812313402,1.0673983288388744,20.6875,775.5625,-501.5625
79.0,N,0.4486137581681902,-0.13555185097264325,-1.0193987120560903,-0.19890632325577187,-2.445494075552956,-1.0833579677076268,-0.3851118570926833,11.9375,775.4375,-502.875
80.0,N,3.3521570709856516,-0.008722705776109634,0.31522220407517126,0.15300393963185469,1.8314195947614325,0.4044537909652192,0.4165054372285681,14.6875,780.875,-497.9375
81.0,N,-6.813831880056385,-0.8987904333359392,-1.417858830997516,-1.3066489770470222,-0.8353827639739245,-0.511614183105215,-1.61025223472893,13.5,783.9375,-493.875
82.0,N,4.973593854726524,1.8942503948263907,1.457907283345624,1.8064644561278265,0.7921900060375567,-0.48726715467847886,3.2331395291205114,13.4375,785.125,-492.3125
83.0,N,-2.632925091553238,-2.299478159781548,-0.32736088655530693,-1.1058916104236352,-0.5981864529118082,1.1398989514353597,-2.5622758220147452,15.5,786.4375,-491.5
84.0,N,0.7262044670728237,0.298352232133906,-0.04167399226523332,-0.5587513177385727,-0.876842544202268,-0.769118701348681,-2.0521483245622947,15.25,785.0625,-492.625
85.0,N,1.7058584494534303,1.320091451296429,0.3109431376165186,0.7248797800450263,0.7258336082180049,0.08498216233014656,3.776936533950417,17.1875,787.3125,-490.125
86.0,R,-0.31638985740616227,-0.12568277894247593,-0.10354536654220925,0.9869558706614328,1.6726820893402492,1.1598454165015726,0.8304652322458906,17.75,786.875,-488.625
87.0,R,-0.0712070342442189,-0.0017272199505405296,0.07635308975537669,-2.2390242526494273,-2.2980096638795904,-0.427542882821381,-2.320347013883835,19.4375,786.375,-490.5
88.0,R,0.006855823678437105,1.3196033763323038,0.40706232161185035,2.6297591716974504,3.4336339395977333,-0.9331699368277778,-0.8778443256885121,27.4375,784.125,-492.75
89.0,R,3.0147507951943524,0.7351594012342894,2.077894826157661,1.0306573774539673,-0.9303760944017526,4.130192774087033,1.396475785695612,23.875,782.75,-494.1875
90.0,R,-6.182677797540067,-2.8279391072197333,-3.7711992427680423,-3.0252349280743864,-3.1689622056529343,-5.462497352628737,0.6141385400286906,20.25,777.125,-501.0
91.0,R,2.525428931258304,2.703550345357483,1.836995553859945,1.5602119236497398,4.712252054417922,1.8032920298027597,4.07996024574807,25.875,778.125,-498.125
92.0,R,-0.9445058414345804,-2.419563016579358,-1.1801375642123704,-0.2890127360043623,-4.930915786920188,1.4454738530098847,-6.504440615336843,30.8125,785.75,-490.5625
93.0,R,2.7151961889370897,1.210357606073535,1.9015147960811811,-0.8417532263952898,2.1779218124370385,-1.7523401703583668,2.0446131888257115,30.3125,781.625,-493.125
94.0,R,-1.9340822926977634,0.9365322285826387,-0.4167747561635073,1.7374529344329552,1.7958952923689215,1.575468077696057,3.167706230392677,25.6875,783.25,-493.0
95.0,R,-0.5809052550115944,-4.018596814634859,-3.3405690586119325,-3.3943450943561695,-5.80785871929237,-4.300288176991267,-7.48007988094296,27.3125,786.0,-490.25
96.0,N,1.9205607891368413,3.2477715162528575,4.8528101111110375,2.8492035508098423,5.168753276399282,4.933745366409269,5.0880865955737775,34.25,778.5625,-498.0
97.0,N,3.78620309918134,5.389487136646,1.0016552800615173,3.1116924282369043,3.839461936881767,0.19945377267041067,3.8632710458524357,36.8125,772.875,-504.5
98.0,N,-5.609889228304774,-6.9748157525074825,-4.0373105695875875,-4.533451197448896,-6.411410020800215,-3.450094674566233,-6.985087188533104,31.5625,776.75,-499.9375
99.0,N,-2.8565055671910033,-2.4739898801256213,-2.440003709070743,-2.190408431823809,-0.275972450552083,0.43985942095699465,4.176053916547726,26.6875,785.9375,-489.8125
100.0,N,1.4447494496963664,3.1601902966249,3.3191054089017853,3.077619112934637,1.0884559381473538,0.7791615884032753,-1.638661276547445,33.0,790.3125,-483.4375
101.0,N,5.371321441662723,5.0587075282828895,1.984527492719903,2.044589361831643,3.996916396359364,0.8791031117445737,2.310003535730879,31.4375,794.125,-480.625
102.0,N,-5.27938746645231,-6.029295623350457,-3.0209759273436667,-3.0711176117566854,-4.295218963463457,-1.2332828877088744,-4.677318454607092,33.125,788.6875,-486.3125
103.0,N,1.8357000398932273,0.5430515546952516,1.1023812813333351,0.16982808839344102,0.42649996171570753,1.3782753740521425,3.55217553953027,38.625,795.625,-479.0625
104.0,L,-2.0864834116447857,-1.258665198024959,-2.05291856818669,-0.8095953962611788,-0.9797734583121216,-1.7249614921536596,-1.9276628239007578,31.6875,786.625,-490.4375
105.0,L,1.705516546951265,2.5545105220427557,2.047254906685129,2.833445739801857,2.2554372206547075,0.34730396956962933,2.0589439889160586,28.8125,781.9375,-495.625
106.0,L,-0.09952108361244814,-1.493059518747654,-1.5714472483072275,-3.0770437925501737,-2.8858966819938754,0.6124470165428635,-5.700859290025367,22.3125,788.5625,-487.9375
107.0,L,3.541272107601039,3.098939585898522,2.98879313354288,4.144403438047555,4.249425246878712,0.9934965080333213,7.360502297240165,27.25,798.5,-473.25
108.0,L,-4.484389005283922,-2.7413715778986885,-0.6724612446089286,-2.450259581544904,-2.878508509473448,-0.16077985164858274,-2.622620032583796,4.0625,773.8125,-508.8125
109.0,L,2.388938212856298,0.5608037029583834,-2.28198782674672,-0.03487484353108698,0.489997759829173,-2.189154769508131,-3.7334228391774045,1.0625,773.25,-503.375
110.0,L,1.8080903108136503,1.5943471949128813,2.914990788590456,1.4103081624579072,1.573173910114244,2.807322417167246,5.872017720576972,13.8125,779.5625,-500.5625
111.0,L,-4.3368646422540085,-2.6189326492333485,-2.509650514129409,-1.5123233420717213,-2.797663818650589,-2.1621860657415617,-1.2806258745567647,19.8125,793.25,-482.6875
112.0,L,4.65973601767123,1.4220767834901822,1.9403618124795565,0.48581508669400864,2.2039215581293266,0.5274402027582132,-5.148828638105335,20.6875,791.0625,-484.625
113.0,L,-4.203833448548493,-1.094324697056809,-1.2642080271251865,-0.1519857802092643,-0.6197021520201739,-0.0684934842258649,3.0173874580763695,40.1875,789.5,-484.375
114.0,L,-0.5581817613679961,0.08757848293950764,-0.7719224720999418,-1.7608514533943325,-1.0206275603904131,-1.2525736883428882,2.0483309925778994,36.8125,798.1875,-474.6875
115.0,L,-0.8788417809218508,-2.1739679389787967,-1.4741543357177105,0.4195532500150614,-1.6773462415093499,-0.6096339350355443,-5.161691335885491,25.8125,802.75,-469.375
116.0,L,3.5663954981270725,4.3760245585173925,3.896439099955732,1.3251186501917487,4.095881222699693,4.543309459452357,6.934063102304204,26.1875,795.6875,-477.625
117.0,L,0.6886605420173418,-1.7141294793637782,-1.497429564361956,0.9298410415862618,-1.8509669860603348,-4.21323742191415,-6.891057719285706,44.375,804.3125,-468.5
118.0,L,-2.4685391586102168,-0.21246514241230086,-0.06198411650926539,-1.3097371604384498,-0.4868077561422625,1.8255904525532345,4.594664926266913,59.875,819.8125,-435.875
119.0,L,-1.2281920964793087,-1.0428918684950546,-1.8543671964039057,-1.8563536150865556,1.2979864570858022,-0.7528567710863429,0.44775051667691923,50.3125,824.25,-430.875
120.0,L,4.465963629435746,2.0390055950500368,2.718860597054358,3.0215693946273388,0.5862603046947897,1.3063381784522572,-2.466976458323433,28.375,809.25,-456.125
121.0,L,-3.7476535278043923,-1.5507483674284237,-0.9744503701532313,-2.1828684394289457,-2.0397089332600706,-1.8159431375213924,-0.07727753345947258,20.125,800.3125,-472.0625
122.0,L,2.5114242948529264,1.5283765235178917,2.27010225608226,2.838515135907771,2.0532968129258427,1.7214481054066848,2.6975078473713117,17.6875,807.4375,-463.0
123.0,L,-3.1608857888028323,-2.874412531478817,-5.549363103800267,-3.2743709553879317,-3.532335685134862,-1.8207808799101373,-4.95814492317577,17.4375,808.4375,-459.5625
124.0,R,1.0650576520070012,2.0359096119312845,3.6847310946074705,1.0826619936832431,2.187537710595784,0.9867960518160247,0.8527987770219543,10.9375,804.4375,-467.5625
125.0,R,0.29459543382423364,0.964729690229544,-0.3756842336743289,0.05189717019202374,0.6611158921482461,-1.0102804223714688,5.065107581305536,14.5,803.25,-471.625
126.0,R,-0.6290444469072891,-0.16198890755127934,0.32610681652868245,0.9555304644836387,0.955793785254842,2.72826789595622,-1.1111403787308782,21.5625,809.0,-454.5
127.0,R,1.0450156552186536,-1.0815950387469253,0.8829936732171579,0.21827575992343326,-2.0310108318111473,-0.2968782644021401,-1.388514847987466,20.25,818.9375,-444.125
128.0,R,1.167541404281769,1.0585848273014098,0.7666614042573342,0.902767840073412,2.519642241375092,-0.43528414662137166,-0.8832036563925081,21.375,813.625,-450.8125
129.0,R,-2.6282184954209615,-2.1894246222126386,-2.8251871925015104,-3.916593195350683,-3.3351442555035726,-1.3253632599148781,-1.0292766921256324,22.1875,807.375,-460.375
130.0,R,3.3921147479665006,3.036476593583175,1.9614963377668064,5.05312339022689,1.8504569969958544,2.7613597400205783,7.775152731664332,28.875,812.5625,-453.8125
131.0,R,-1.6628819869158025,-1.569530397281983,-0.3628648729864663,-3.392029466395589,-0.5337751965301872,-3.8793314309724685,-8.441851191874532,30.5,813.0625,-449.625
132.0,R,1.3694628569636547,1.3314214143975218,0.48430220274806857,2.210472771711063,0.9796073006967032,3.7088317260249366,6.480611983252712,30.4375,807.5,-464.3125
133.0,R,-3.101130911267979,-1.9224546231445596,-3.0090032336632495,-2.272397629300998,-1.0858087085994825,-4.382569312380105,-6.041851268784322,24.0,809.875,-456.1875
134.0,R,0.49070080591333304,-1.2605998266976135,2.7576594888208263,0.9208118542010669,-1.405226204902239,3.8545754217224735,2.482803511159117,19.75,822.5,-436.625
135.0,R,0.3873345358599513,1.621370793280771,-1.4249445382550694,-1.0333389660488392,1.7515399614799458,-1.0803923078555708,-0.5981113685298891,22.3125,811.3125,-456.1875
136.0,R,0.9305314661428693,-1.009612605029959,0.37032502583957727,1.356771657080384,-1.1294182572872251,0.6580442128197863,0.8028788949996415,28.75,799.9375,-474.375
137.0,R,-3.678885744092382,-1.0468777262846316,-1.8495650774821055,-2.8650840562243083,0.19116461492594863,-3.2706386951083295,-5.321667030489149,34.5,810.9375,-452.0625
138.0,R,1.7225584528377003,-0.24744815926204136,2.086985450070678,1.8968243681719315,-1.4798646342062647,2.4195227783761,6.701384736597416,29.375,817.375,-442.4375
139.0,R,1.6320374180479802,3.716968864151379,0.4350256309444803,1.3775455932817295,3.360349029853207,0.03318689185893015,-2.9824468923356173,43.9375,794.25,-479.8125
140.0,R,0.2708042290290539,-1.5703886295850222,0.4594095756518009,-0.28732805389104443,-0.5787613301308936,0.730846220215446,1.4034088893552015,33.5,799.4375,-472.5
141.0,R,1.7138709364085671,1.5129633859549823,-0.9192097101871558,-0.3821028209086061,-0.7960854179085759,-1.7177164323635077,-1.2830263726437618,20.0,816.375,-445.0
142.0,R,-1.6359278234426158,0.2854064570215714,1.364903360643706,1.7080799867431147,2.779350036259723,3.327197298839292,2.3162385532345637,31.4375,813.0625,-449.1875
143.0,N,-1.7987679395036575,-2.037431342337615,-3.2570495792348475,-3.4704780910040847,-3.8100749770934472,-3.5545685007337835,-0.5249461817138062,41.375,811.375,-459.5625
144.0,N,0.6347006990888407,-0.506981118448146,1.5729243126865577,0.8712999866334926,0.26802751176643186,0.40855460403157395,-1.458563001765656,30.6875,813.25,-450.0625
145.0,N,1.720063655547034,2.0401075196857152,0.9352757701646767,1.5438079816443862,1.4816746714779356,1.852935079994365,1.059628889806636,22.5,804.25,-467.6875
146.0,N,-0.9435808979661605,-1.3299760772194529,-0.5531326473770278,-0.9723359190379297,0.1903351273173932,-1.192465651702657,-0.8012024163505622,28.75,802.0,-469.375
147.0,N,1.4144802595733654,1.2129767279416317,0.929934214415941,1.00049992165967,-0.42468558720065835,0.4599598949767334,2.2244239327199815,28.8125,794.125,-480.9375
148.0,N,-3.172711080743526,-2.085990833663412,-1.3773870720488723,-1.1684926115034573,-0.8384209777129455,-0.4780658437104528,-2.5460122345117933,24.5625,791.875,-485.0
149.0,N,1.720000233249834,0.994356888815207,1.0401442399590615,0.15982890385703286,0.49481746630428686,1.2379182636172914,0.4106707557360314,31.25,792.1875,-485.375
150.0,N,2.7886287683204727,2.6986639807839063,0.7544813129069625,1.6644833989613268,1.439583539021851,-0.2182174588668912,0.2146088114533809,24.25,795.5625,-479.6875
151.0,N,-4.022248378120865,-3.021079131940095,-1.481709628072202,-2.1583635746186336,-2.183551777279672,-2.9934661941710647,1.0488204708182707,29.8125,796.375,-477.0
152.0,N,2.9809581366026396,1.4409339284175986,0.8611584242691172,1.6572498899305375,1.5491238165784926,3.7880352206841836,-1.9642307466755138,26.625,792.3125,-484.375
153.0,N,-3.457651455256184,-1.9993622132226536,-1.3568357185805717,-1.6736420420493063,-1.4270997753235999,-3.653961217408537,-1.9712312217799426,29.3125,788.625,-488.5
154.0,N,1.7252736018994563,1.6721892354728767,0.3833288924690519,1.2688472434021272,0.8717092228392083,2.6486397557508154,5.564093190896319,26.9375,789.875,-487.0
155.0,N,1.2853921607694687,-0.3225964629140292,2.0420310886985273,-0.21192926044470142,0.5644917573803759,-0.4353226552789306,-3.1071190474509454,29.5625,793.375,-483.0
156.0,N,-2.959342791111646,-1.48761528805313,-3.811452718860123,-1.7177611632897085,-3.176462791758725,-1.6082278399112635,-1.1372794604893033,28.25,788.5625,-488.0
157.0,N,1.9862958998710498,2.000128872036135,2.012860869489143,1.6175763383945907,3.724398498695651,1.388612535049861,2.8796306148804325,27.5,787.0625,-489.625
158.0,N,-2.288837236113254,-1.3958551540677822,-0.8917586888973965,-1.1238369197869442,-1.8763079876394846,-1.2376534425857888,-2.94402571370248,24.8125,790.0625,-486.4375
159.0,N,2.242215242086911,0.822261642150222,1.4757647442084325,1.6250078137133592,1.2189215254562347,0.6050122873430186,1.2468217834576776,28.6875,792.625,-482.8125
160.0,N,-0.4573493912351358,-0.649398181091319,-0.6653351711538079,-1.3394236027453708,-1.8224653073408141,-0.8107835468653175,1.111032633332659,27.875,785.6875,-490.4375
161.0,N,-1.1290103534484157,0.5629855883546719,-2.0183911508342303,-1.0565175067621295,0.48572357353918016,0.10619939437822631,-1.115451042971029,25.5625,782.6875,-494.625
162.0,N,1.2796787852826206,0.07564111940723296,3.1556971115958494,2.602669015083804,1.5227330003144406,1.3691097886105255,-0.16643763570927603,20.875,786.5625,-490.5625
163.0,N,-0.22434146787928405,-1.7592872309858023,-1.3450158731145447,-2.3231461476119097,-2.9421803074611534,-0.7398371243777266,0.15857968059381664,22.0625,790.25,-487.3125
164.0,N,-1.0509255914334799,1.3996069379586316,-0.6030379092497792,1.0617236909405348,2.443869200873021,0.4989409930377734,-0.26168828828640334,21.875,789.0625,-489.3125
165.0,N,1.724312003651164,0.04986013496581336,2.0162752840371017,0.5023873914839826,-0.24330957664217276,0.29466543738485734,-0.4682554656651268,21.3125,787.875,-487.5
166.0,N,-2.488830809195265,-0.6124271314627537,-2.8487125106328914,-0.741363489532153,-0.5806029519858633,-1.449850835411874,4.566378593405268,25.875,794.25,-482.4375
167.0,N,3.6821040205521562,1.8272504103546818,1.7480403679711185,1.0301246656957594,0.6973143967692976,1.278350860988441,-4.447509740908752,23.1875,796.25,-482.875
168.0,N,-1.9641734142800695,-3.1527476744737863,0.06473386493258847,-1.2215014248663816,-0.6473807925077554,0.9717278372506505,0.35438688710204475,25.4375,801.9375,-470.5
169.0,N,-1.6596254320309891,0.7001029315515334,-2.778228376755801,-0.8011005001321405,-0.8620861143389734,-0.8826450692690893,3.903729453421662,21.3125,794.875,-480.375
170.0,R,3.255664210885382,2.0123127784257626,3.161463090553903,2.8990726819154777,1.4517238723684545,-2.134839900896079,-6.336709820192044,27.5625,797.3125,-476.5
171.0,R,0.27947766686772546,3.3673286281997594,1.8118952536676707,0.3720315652190975,2.2492925282730503,3.9709411439311886,4.9511440038573005,24.125,799.8125,-472.3125
172.0,R,-2.4631339584420493,-7.20783390780103,-3.825420711452453,-1.640417142485996,-4.078951421900209,-2.4129384301508834,-3.385200130310244,15.9375,805.625,-464.8125
173.0,R,1.817568739804794,5.17834793956685,1.9033633196172408,-0.114026813102721,1.7354771451996798,0.6904736777855155,3.132349025882271,12.5,794.8125,-480.8125
174.0,R,-1.5253860322491286,-3.0577834699117066,-0.10273463173094115,0.19215088921943607,0.8052799103748798,-0.5471922587182908,-2.7973315415218245,14.75,800.6875,-471.875
175.0,R,0.577952417600582,2.9625542620451335,1.1243460986096918,0.17363172525605547,-0.13140637622797363,2.2998238432262648,3.400430869161039,14.375,801.75,-470.25
176.0,R,-3.565621739790038,-7.3023469052969014,-4.631137595602724,-3.4342908017524643,-4.790174413551269,-3.8494262449268652,-3.9879430881961344,17.625,806.5,-461.4375
177.0,R,6.903467142922479,7.936622637388924,6.384239423170362,6.176192024875416,6.879031503925724,4.35222931000314,4.287748342089591,17.875,804.0,-466.875
178.0,R,-3.2115215671787283,-2.8535809818920197,-3.0738581325901855,-3.35078375767364,-3.4728000374832275,-2.913714047758087,-3.907521214823984,14.625,795.3125,-480.0625
179.0,R,0.6181806562788779,0.7586483989458649,0.33876439210340276,-0.23241508652779203,1.099399087362166,0.6043638382826922,-0.5741446375666046,13.8125,791.25,-486.5625
180.0,R,2.282941723902462,2.218797650686629,1.5721038002748646,2.3532732316301304,0.00886911094377706,0.7738731633442483,5.331716396450396,11.0,800.25,-472.5625
181.0,R,-2.929777378294477,-1.2991273215302077,-2.1903957977128896,-1.580544914150775,0.7235902191620782,-0.011820814030131714,-4.565597291045483,16.875,782.125,-495.6875
182.0,R,-0.28126448588410824,-2.1752926602249807,-0.051233225322869745,-0.7140561777456994,-2.1383231346550713,-1.4848710170427961,-0.9742048465893948,21.625,786.8125,-489.6875
183.0,N,1.0033105678581729,3.1319072386217557,0.9065871014663113,1.6434539045705001,3.7760217610881357,0.8750877129793219,4.742912078139271,18.9375,786.0625,-493.375
184.0,N,-5.48277055647506,-7.73566833794814,-4.877732575305563,-5.843013239273006,-9.053876746519643,-4.314819935595818,-8.55925043688481,22.0625,795.4375,-481.125
185.0,N,6.681494140791403,8.400477348867991,6.497128393588173,6.973355594491595,9.032811574415492,5.430499065039119,9.609228443921122,28.5625,794.25,-480.625
186.0,N,-1.0985167457730576,-2.5966224094774275,-1.5022065050836053,-1.914328684275506,-2.107407294534461,-0.7946679164247656,-4.992801914739062,22.25,784.125,-493.6875
187.0,N,-0.552188113028063,0.10041899295681161,-0.789818752779959,0.03755996606472468,-0.729708087637222,-0.06274174358352592,3.0318669899745614,25.9375,785.75,-492.125
188.0,N,-3.655496203232295,-3.487697281246927,-1.8408681792540729,-3.2105711676723425,-2.0762517300801524,-2.515764473843323,-4.763434716449402,21.9375,791.9375,-483.6875
189.0,N,3.940144056276138,3.9507090320496596,3.0647705621423165,4.595854202205922,3.0990455789108764,3.02616378308859,3.6541884215066935,25.1875,794.1875,-481.5
190.0,N,-0.17854020795500014,-1.5724809021442234,-1.1558295181709812,-2.2153814916403354,-1.0867091184502025,-1.3901716828905892,1.3853400763734762,30.375,790.3125,-485.9375
191.0,N,-1.8986646475340807,0.47678571272472575,-0.6007867460115229,-0.7440983127494522,-0.9167774884737836,-0.28249113852010577,-3.2512681382653414,27.9375,788.5625,-489.5
192.0,N,2.7087628748220123,1.0225087843667948,0.5218665052655557,1.6463211428441866,1.4757762251987823,0.7784586765821796,1.4649556930715153,23.4375,789.0625,-487.0625
193.0,N,-1.156502262453301,-0.7124550045518072,-0.5320628559266899,-1.0137154372029156,-0.5704532093628798,0.16362001467989945,1.132881033028877,24.6875,794.125,-481.875
194.0,N,0.21835864264883942,0.6937522916683259,1.955096907034942,1.533546252529395,1.7096491874682027,0.38248474165198615,0.15822311777338813,32.5625,796.6875,-476.5
195.0,N,0.7807086978694258,-1.1766188184388462,-0.5712993564168942,-1.3973448127787258,-2.0735442879667816,-1.731144627702266,-0.33019497630002204,31.75,795.625,-480.5625
196.0,N,-2.034099581294844,-0.18306906957616775,-0.8737109313299382,0.5205122174535252,0.8038116288131824,1.2197625712375464,-2.0780273049847504,32.375,798.5625,-474.25
197.0,N,0.58188528312052,1.95911583083772,-1.1859608983148118,-0.9965203909980229,-1.3077387974445112,-0.815526972322398,-0.5391504718262385,31.25,799.0,-474.1875
198.0,L,1.231739933796835,-0.5767812679294637,3.7059026269290434,3.038992610894842,3.2180198719133104,3.1577576982693927,5.537912238249815,36.1875,795.75,-477.75
199.0,L,-1.852941641346486,-2.711741110006492,-4.073774823188956,-4.094655710966864,-3.927412098961317,-5.568064299099636,-6.654836764244774,35.9375,790.1875,-486.9375
200.0,L,1.369083945645822,2.412865207289074,1.8035207331227556,1.4840948597827968,1.9280541883251356,4.514395146374245,1.045977242632358,32.5625,793.0625,-481.3125
201.0,L,1.002255764499068,0.19880998230830288,0.7384345251214006,0.6675393965902509,0.5891490021247405,-2.1409821388168666,4.53927183500113,41.9375,793.5625,-480.3125
202.0,L,-3.508820338213516,-1.7000239066084104,-2.211960166377368,-0.4593941509450583,-1.3155442635490757,0.6336409942703528,-4.273941442983933,33.0,791.5625,-482.75
203.0,L,1.8155814710022251,0.8020321946277116,1.4476435744797678,-0.14964512197297103,0.5168190994140311,-1.4049150449360583,0.26230248362042174,41.125,785.125,-489.3125
204.0,L,3.825788461613508,2.370780306666867,0.8341826749073348,0.7824787464507118,0.6671168134787956,1.9226576801858641,1.086822964988888,36.5,779.9375,-496.75
205.0,L,-2.167480991178378,-1.047184800194725,0.8411244154943647,1.061526236266732,0.37585584479755285,-0.41002751416191224,1.8975100050377476,47.0625,787.1875,-486.9375
206.0,L,-0.8137879606164606,-1.2720201761410408,-1.6896901184585098,-1.5959545227588603,-0.8552319590569798,-0.28194557981517393,-3.8026587234668665,37.875,791.1875,-484.0625
207.0,L,-0.7093885425512539,0.7257120162317477,-0.18173253292046093,-0.8815966217881938,-0.8183447656266193,0.40680590467985034,-0.1263603926319229,32.8125,783.5625,-491.4375
208.0,L,0.5854827701190213,-0.13966179446798516,0.9475181521418204,2.2132220947116434,1.2280351692415068,0.548322947126925,3.41567281291482,38.875,781.25,-494.0
209.0,L,-1.4266182977677153,-0.1983451257516124,-2.31665786965412,-2.2970024979913375,-1.6736021027988923,-2.223872796277093,0.14428583465943212,55.5625,788.875,-483.75
210.0,L,2.373056227547685,0.8096098370253278,3.374328267887203,3.1498034209349455,2.058363260926134,3.5622236696265657,2.248924896983314,41.625,788.9375,-487.625
211.0,L,-3.237179462974792,-3.128935078736746,-3.6645808592370095,-5.039123105125838,-2.321706885181137,-4.517583991711968,-6.287250315430903,55.125,780.6875,-493.6875
212.0,L,0.947126944785085,0.5330677642811433,1.792103308563252,3.147618584145174,1.1566023584354106,2.180606138160587,2.482934497627974,52.375,785.5,-489.25
213.0,L,4.147108497854362,5.568762541545481,2.2505335769686665,2.702421111199499,2.897604516878188,1.982666122638006,1.5359650636578885,64.75,795.875,-474.625
214.0,L,-4.1044325744243695,-4.965729041185375,-4.205950790656286,-3.877006394384303,-3.370814480494059,-3.9006278208744654,-4.050585670780443,35.0625,791.1875,-483.125
215.0,L,1.6670176554098846,1.7546654096174603,2.8535435852581177,1.7449838791490733,1.4125045229098019,3.310587029066432,0.9824988321412145,32.4375,785.8125,-491.4375
216.0,L,0.2067548578845282,-0.5737954467544475,-0.7983864218728585,-0.5269716254829228,-0.028085759814620873,-1.9956039651145034,-0.0752484890241517,36.0625,787.875,-488.9375
217.0,L,-1.5287220980184166,-0.06866535844569216,-0.759603751046357,-0.5926936255107187,-1.2753650238496081,-0.31955760645155407,8.069011906630486,50.6875,791.6875,-482.625
218.0,L,-0.44888867736893007,-1.638311216630619,-0.5184340930470035,-0.4074249723591388,-0.1486003309747872,0.9900661359949853,-10.763565564938773,19.875,792.9375,-479.25
219.0,L,0.19234666907986547,0.5213870243227343,1.7197973033068819,-0.2023182796962142,1.240867139234046,0.21100257081175347,5.239840622316011,15.5625,790.4375,-486.8125
220.0,L,0.9205874627830122,1.0217998876197552,-1.7771160191694613,-0.21833255780220928,-1.3666634256592476,-1.8323647500887064,-7.917288696190373,31.3125,779.875,-497.625
221.0,L,0.6446059402473593,1.0361167341598299,0.7156989776408632,1.5813714947111226,0.969819987283033,1.483890623014392,23.775222176958607,61.75,789.9375,-480.125
222.0,L,-0.12888920880087426,-1.0283726891129428,1.5929932756930434,-0.25592725371810227,0.036923350544327146,-1.393118663942782,-26.246904856300215,44.75,783.8125,-491.1875
223.0,L,0.5165089994787174,0.807618446004331,-0.6008012714448969,0.8890691455577855,0.9194033139965657,2.0432404388652943,10.37588940685903,24.8125,790.0625,-486.875
224.0,L,-1.824661986682295,-1.4015523875363123,-0.8422632459439926,-1.6141612189082626,-1.067385322464963,-0.6179796229166706,-0.6211689641128105,7.5,780.1875,-498.5625
225.0,N,4.044434259556741,2.693872307954469,2.9637578930855133,2.7382997241298836,1.7733675276098986,2.0780038306275266,5.94044720640511,20.4375,793.625,-481.875
226.0,N,-2.2422450722158755,-1.2252200860325884,-2.4593101951389955,-2.2811609286225054,-2.0966052739348844,-3.1736400228427946,-8.971631884713366,7.5625,794.8125,-480.625
227.0,N,-1.1055465213850004,-0.8699982456466535,-0.5176547919625373,0.14949391486348781,0.678572071044805,1.2628140318541392,2.350854492974035,1.5625,789.8125,-487.5
228.0,N,-1.0080689481367278,-0.6441105478391465,-0.11485976608232795,-1.3708130399467457,-1.807453400574736,-0.8301125931225206,-1.1590736028285022,0.8125,788.6875,-489.5
229.0,N,0.8336198939730429,-0.6120674198082047,1.2918459991880593,2.4258161533011307,2.2831212417256737,2.3167796874086677,2.8431654390150687,8.75,786.75,-493.375
230.0,N,-0.32099327750150886,0.9653374509335032,-2.9402784454934556,-3.0723085072051273,-2.1778191317703777,-4.469557367960006,-3.5231441823646445,8.875,789.5,-490.0
231.0,N,1.7531582630646116,2.043039550459071,3.581560369780875,3.6778205529213057,2.0068535214786696,5.230003082431718,1.7547157129414774,12.25,782.3125,-497.25
232.0,N,0.8327402560674827,-0.21564508853388065,-1.0621118167683306,-1.1196338462066564,0.3102671817364661,-2.6255070386598107,-0.24457145440758177,6.0625,782.375,-497.9375
233.0,N,-3.659540405961302,-2.969626260500393,-2.1535359893725463,-1.8483931977377808,-2.472255701931949,-0.007322905742990656,-1.5475591028175533,11.0,778.5625,-499.0
234.0,N,0.058513831047056555,-0.36267090487020776,1.3504504788884464,0.20574989448531505,0.529207793216341,-0.9456187125212191,0.8616773275016567,14.3125,779.1875,-500.1875
235.0,N,1.5584106521463104,1.1229533706976818,0.180283074770364,0.9492505676590697,0.7142351297254533,1.522928576776751,1.21624359079774,12.0,774.4375,-502.875
236.0,N,1.5652832233546157,1.5284969109569455,1.322837608975536,1.3717456019694847,1.5985422436033068,0.69552877702611,-0.6741589092264021,8.5625,774.375,-504.3125
237.0,N,-2.0030684280408493,-0.8755423463772493,-1.8084701278476427,-1.3230174759086244,-1.4385909649459103,-0.931435326162346,2.2430919615384117,8.1875,773.125,-504.6875
238.0,N,0.9829373145340629,-1.4469784202681932,0.22252202960335746,0.33377423664740624,0.34615019514638173,-0.012243546744773653,-0.7121696059134506,13.625,772.4375,-504.625
239.0,N,-0.7582901222873816,2.146912960043237,0.37113157139119446,-0.5752572464705406,0.16182997530561505,-0.6902752763723086,0.8711456042539529,13.5,760.9375,-520.625
240.0,N,0.7866234013399896,-0.9573533015281188,-0.2811757755211164,0.2460168049416851,-0.10769894671788666,0.7539410830914858,-3.2559401830139274,12.6875,762.9375,-519.875
241.0,N,-0.999493264587239,0.07074206914265051,-0.39331133152619396,0.2406310483379192,-1.249676713618515,0.5267087410755706,1.8316702846788007,14.875,765.3125,-515.5
242.0,N,-0.7185890591302491,-1.5529342145479408,-1.0501409144828506,-2.3369357326535947,-0.7549492996512958,-2.312303624565253,-2.561937218139512,13.75,766.625,-513.4375
243.0,N,0.5462448289370577,1.687942309948866,1.4515903462253577,1.6679156510931747,1.4470753132920087,1.6452441875017354,4.631716255201639,12.3125,765.6875,-514.25
244.0,N,3.57859871201153,2.422117611908389,1.7693260415202947,2.3747597844878885,2.3102249210103984,1.0534690586628397,-2.985323719206387,12.1875,762.3125,-517.5
245.0,N,-4.953838054293587,-4.331176148317648,-2.5397074594363453,-3.500228517487191,-2.8071407339664707,-2.229784529942915,1.4011508929774785,5.75,753.0,-533.1875
246.0,N,2.6541132424213756,4.501195475865032,2.3377325598177583,2.49883885134188,0.8983614218102062,2.096975452320037,0.03861075421472651,6.9375,753.8125,-532.625
247.0,N,0.26272322881588167,-2.6885428432166614,-1.350703681129008,-0.7291178638173453,0.34244548947537007,-0.3308345138375513,0.6537261278747187,4.3125,757.0,-525.5
248.0,N,-1.0427103158033535,1.0479769922112312,0.7212778490976618,-0.06881384418266799,-0.3539704976536488,-1.200802186130394,-2.911974977091195,7.0625,757.5625,-526.9375
249.0,N,0.38048531986336387,-1.0993913788750473,-1.3138887532792618,0.16800506494649278,0.2899091784461349,0.37415392773985773,3.3913247018123354,11.0,753.0625,-532.8125
250.0,N,-0.9973459817753008,-0.24897936356911315,0.6998786052004593,-1.2348333889177885,-1.2742076095676744,-0.4638954430351273,-3.305443566761477,11.0,754.125,-531.375
251.0,N,0.9920302823800832,1.0212630513772805,-0.6708372748556339,1.2493977507524476,1.265309114240857,0.8831893162747602,1.9464784853985548,8.8125,759.375,-523.125
252.0,N,0.3425328503017312,-1.4707121734993966,1.6933962099802229,0.19092505587964342,-0.1238651733363988,1.2605632140645142,0.5795746551809559,11.8125,760.25,-522.75
253.0,N,-0.7359073220753155,1.6180612813836084,-1.3738432717814668,-0.14116155020995608,0.5450172428040277,-1.5544773310223752,-0.34239949349536825,10.75,758.25,-527.1875
254.0,R,0.05535536179139874,-1.6435478499515088,-0.2923367349317223,-1.3768907956944894,-1.2544125061080327,0.16863187706112584,-2.8871747373221184,13.5,755.5,-529.3125
255.0,R,-1.0046596775794532,0.8540966810517464,0.5745614134122233,0.22179210057664592,0.005067650059562311,-0.12234905532859285,1.034591535398012,8.3125,757.4375,-528.0625
256.0,R,2.0228744692664686,0.4813830892909788,0.9365709245189133,2.1272625237828415,1.854497398605909,1.7911048608498026,3.718144973252462,13.375,761.0625,-519.0
257.0,R,-0.9923289356844752,-2.2474004084161643,-0.8636238747245879,-1.264593154950751,-1.9621385694937925,-1.1225888340304504,-3.3993704577235713,30.3125,760.0,-520.875
258.0,R,2.5019596535744295,3.574826533228051,3.1649893507457922,2.682820044453101,2.9531697560977173,2.378234903795639,1.8136904387165569,32.25,754.75,-530.125
259.0,R,-2.415336076175961,-1.5288036759568582,-3.5312088792919285,-2.8406457725984344,-2.4379165034720867,-3.080124547150557,-0.5366327615529467,27.875,764.25,-517.25
260.0,R,4.257318142860438,3.882838031205639,2.828866763903514,2.081787532259332,2.4711448660210706,0.6538102906895781,-0.603886957036967,26.8125,764.5,-516.125
261.0,R,-3.570455287055303,-3.437432310245951,-1.7733164288685668,-0.6702791953434873,-1.0239108314790266,0.84810752409615,2.270564232891635,7.0625,766.125,-515.0
262.0,R,-2.235964791444242,-2.1055489003158834,-2.497493897815774,-3.1703708544190974,-4.29267937251896,-3.12841056108715,-7.424617174900906,12.0,763.875,-517.3125
263.0,R,3.4646150917246663,3.69878548375231,4.346269933623472,4.081826583678705,5.564316041049259,3.9394283224810644,8.868761815432993,14.375,762.625,-517.125
264.0,R,-1.1528518804200052,-1.6864077726630242,-2.4764256546477714,-2.3402679270176807,-1.9293941956659277,-2.431272540594478,-4.791471682556155,18.5,761.1875,-520.875
265.0,R,1.9646108871780639,3.004834888964868,3.782743988885989,3.680692755971297,1.7004250652721657,3.7093177324785302,4.171125111524223,9.5,768.0,-512.375
266.0,R,-6.97663657530142,-8.50327832341521,-8.303349141753758,-7.9805247231952725,-6.881475496464312,-7.517019985919246,-6.878204915969827,6.5,769.75,-509.4375
267.0,R,5.138539727630336,6.8837993962184925,4.747718945063676,4.735573099139649,4.574731207692359,5.135405698058007,4.466024666725898,30.625,759.75,-523.4375
268.0,R,0.13024897251029507,-1.153237544513191,0.9828805368699787,0.5803590575941353,1.0322037878916526,0.2518871577007435,-2.098160579111429,28.4375,746.125,-543.5
269.0,R,-2.4310819717609626,-1.479068001054471,-2.0522466833672435,-1.8238606945317293,-2.5214265626396544,-2.970383661459992,4.880463603165283,30.125,744.8125,-545.75
270.0,R,1.7535667385316431,0.780670733863034,0.7847769655844047,0.5898987834087591,0.8732795201635313,0.7568941725692141,-7.011515646997064,18.0,744.25,-548.9375
271.0,R,2.6795609941568523,2.3281393866059426,1.582089131327345,2.953515579190378,2.9029970592269847,3.41565914507365,10.992178204772216,14.5625,744.75,-546.6875
272.0,R,-2.6801433969569106,-0.5816159056950774,-0.9631420023765231,-1.503041234250696,-2.1145092160964443,-2.483751563143938,-8.685975133929778,33.25,744.9375,-543.875
273.0,L,-1.3956169375399645,-3.2964042125890214,-1.2097279599151711,-2.66109321340119,-1.0067940034375542,-0.08399391492814755,0.49173413285164397,18.6875,749.1875,-542.0
274.0,L,1.8876460197778286,2.4198550210723124,1.4536449565327962,2.203387077241065,1.0621614247506928,-0.2870911643915624,1.2156470441418723,14.1875,743.9375,-547.125
275.0,L,-1.1689270173790205,-1.301708965331693,-0.7202131071057509,-0.4705098662364521,-0.40982713168031976,1.7170814175891878,2.6173934558167558,5.9375,756.0625,-530.25
276.0,L,-0.6770957347974395,-0.20723470521455853,-0.8778656038538051,-1.0274753666487313,-0.4621513534675624,-0.7742102925967934,-2.47892174707581,14.25,751.125,-537.5625
277.0,L,2.3953065709853663,2.6891996698745153,2.2040620254442826,3.185958149310647,2.0726687623573996,0.2289220375975376,2.7634091000498207,19.0,753.0625,-534.75
278.0,L,-1.4762533820709773,-3.1845430113029325,-1.6885876717544424,-2.7168322294047793,-2.009506975069701,-0.6374738391078245,-5.109152180621729,17.5625,752.1875,-533.125
279.0,L,0.09644600303326888,0.8238549103035289,0.24002541922688753,0.2857797457736623,0.3024372665756854,-0.8718761119400664,4.356909645396473,21.125,751.5,-535.25
280.0,L,-1.4147488405615636,0.07996352453325471,-2.618587630524535,-1.126114340661149,-1.644033789820985,-0.7957534307107508,-6.921451056254672,32.0625,756.5625,-527.6875
281.0,L,2.183942179626139,0.5410611869739992,4.813960064067962,2.666429997729662,3.515704575808797,3.4774813235559776,6.673304399213299,38.625,750.625,-536.125
282.0,L,-0.9980284655976868,-0.9337067819362219,-3.2571100657514807,-1.585102297545958,-1.949216339011658,-2.6585315030303507,-2.5348506493682135,29.6875,744.0,-547.0625
283.0,L,-1.3818704301639408,-0.658615253819602,2.08112558791488,-0.470029927898318,-0.2686631919060055,1.6949894450165766,-1.3098146718057004,31.3125,748.5,-541.25
284.0,L,1.3755953531723666,-0.2919980807586735,-2.0952272232441267,-0.2325166391509381,-0.6680913993037445,-1.1870769856571535,4.7366930078460685,41.25,749.5625,-537.75
285.0,L,-0.9987371810819138,0.9885561667388076,-0.4347817445470441,0.06129762088116331,-0.04340753119146962,-0.4006436662916631,-5.577536414779822,60.0,752.625,-529.3125
286.0,L,3.589516273783942,2.9497584848895126,4.25895973269939,2.8359425903776163,3.075322676032702,2.786002062531039,6.309342741146205,46.8125,758.0625,-519.6875
287.0,L,-2.991522562691627,-1.968699031096152,-3.7685937279311617,-3.851719181036381,-3.353277642977673,-2.82923412625698,-6.9379677400429935,37.0625,760.625,-521.9375
288.0,L,1.5361089554792862,-0.27241112637210757,2.396615435620132,2.7725477050425225,1.6322425128610603,0.33139683137511167,5.174337694454587,39.25,757.625,-523.75
289.0,L,-2.7266103224904175,-0.5268089238900168,-2.3645183782429875,-0.3359137639813943,0.11769663171964294,2.1229478199067344,-1.7126475291015755,36.5625,763.9375,-513.625
290.0,L,2.738119700230337,0.03269218631576041,2.085317294070751,-0.9802850190169299,-0.9054282277971233,-1.8254163784136976,-0.18480028142763102,15.6875,754.5,-529.0625
291.0,L,-1.2263103729518257,-2.373964273178419,-1.6100640895798082,-1.1431484579161297,0.3974541931880641,-0.0031093509849658856,-0.8777553090592954,20.875,753.1875,-534.9375
292.0,L,-0.7321835973661719,3.638237757494728,0.525155500983692,1.9366240798895595,-0.22116972918760705,0.13576499134815367,1.6679372724722739,9.625,747.125,-543.4375
293.0,R,3.2917226712105845,1.1716416954793867,1.641336752578808,1.763597013863406,2.1828840046502216,2.0149038110704,2.69336155094187,28.9375,758.3125,-523.1875
294.0,R,-3.008544636186338,-3.2834159318149485,-2.344016873355981,-2.8149778076159033,-3.0109556339268866,-3.3927798616364124,-5.406196130624354,9.25,753.5,-537.0
295.0,R,1.738117239521923,2.072947472432078,0.8397836318992872,0.6685718325283801,2.7252635469029327,1.963429314334571,0.30201699284245886,8.125,758.5625,-527.25
296.0,R,-2.03275596618615,-1.0993954076237022,0.4618914179298222,-0.3478719486576122,-1.7189033643331417,-1.048201989046393,2.8612385193197687,21.6875,746.625,-544.125
297.0,R,1.1278388920987563,0.5020610650046592,-1.800353111843919,-0.06465037026161076,1.473145902286014,-0.9974157403097288,-3.1174812376601153,18.125,749.5625,-540.0
298.0,R,-1.798804377044496,-3.215665730851676,0.44736210599061055,-0.6233109929928614,-4.241802980354487,1.5911068403517068,0.7429704881274619,19.625,756.875,-525.0625
299.0,R,3.1153766803454515,4.906605919913158,1.9446098105442589,1.2310502378918406,5.213156137257922,1.022213600228825,2.1136019138659026,38.0625,739.3125,-555.1875
300.0,R,-2.7067427504832016,-3.895451435379373,-3.049565909860565,-1.6639958076237644,-3.965761735122059,-2.4079670690575554,-5.781033304069093,30.5625,750.125,-538.0625
301.0,R,2.5345832392878247,2.2893950072950107,2.62029072856557,1.3604397413171532,2.6092481621402683,0.9121307794522784,7.6453344025989685,26.5,755.0,-527.9375
302.0,R,-2.2545655874860437,-0.9689665003376563,-1.2917811222518125,0.5332043198371964,-1.2467635380555766,0.6341885379355641,-3.067646909506553,36.3125,759.1875,-520.6875
303.0,R,0.5143737184173534,0.0954036465995797,0.06469446426862546,-1.0860147993169056,0.1290807530898586,-0.8884489892249201,-1.2563648905330311,25.9375,752.9375,-533.3125
304.0,R,2.254233734569412,2.4633497459274913,2.393978323600316,2.6088433510946385,2.13835283767995,2.2314160761595083,3.6010853461680834,16.0625,753.8125,-532.375
305.0,R,-1.824362783001817,-2.513361826528105,-2.8615257757447283,-3.094903948244146,-1.9206935295196386,-2.8888544908774456,-4.549786109907119,16.4375,755.5625,-527.9375
306.0,R,2.399447095002947,2.298996608516055,2.6542449034040345,3.340934157639641,1.3421347737547757,3.6993539760182825,6.492988056961577,20.5625,765.625,-517.25
307.0,R,-2.9654805759481397,-3.2492383256358135,-2.466368538885482,-3.3185563682341903,-2.1729825392911115,-2.720714572941014,-6.511905276295518,32.0,761.8125,-519.75
308.0,R,1.2536829555203313,2.451071405905114,0.4552069819883543,1.5526473486013974,1.298148271418857,-0.41908717618749963,1.5197536904678963,18.625,759.375,-525.4375
309.0,R,-0.9794561400203309,-0.5610307438465425,0.876572780525091,-0.18442449093645438,0.8968216447287104,0.5345465119527469,1.4809499888208544,17.875,757.9375,-522.1875
310.0,R,0.05103445150493803,-0.07639195119990995,-1.9592104562655464,-0.868033289046519,-1.6815151662153875,-0.9882987131841612,-1.33095470541156,15.0625,764.4375,-515.875
311.0,R,0.16416240871332594,-2.459018089869214,1.5427748375300112,0.5687218014758724,-0.3913878693971476,1.9927037241095253,0.9464778479712546,25.0625,779.9375,-495.5
312.0,R,-0.35660478272140333,3.1049095360346963,0.7097281144439317,0.8628904504095031,1.5471554982871405,-1.6352256166414676,0.08361056555470622,32.9375,753.0,-533.5625
313.0,R,3.036654747319797,0.21125610107954595,1.1086086229770165,0.014560309153749814,-0.0043381675938360615,2.451874763069629,-1.68988927855553,28.125,760.0,-522.25
314.0,R,-3.7682457935124147,-2.1532652875633627,-2.276951622689071,-0.9278013096024672,-0.6448124259498493,-0.9851266044971058,-0.23353876352398242,22.6875,759.875,-524.9375
315.0,R,3.694451145483835,2.725092496067579,0.3978249280137918,0.3082856140686739,-0.06717907874631908,-2.775393654195238,10.296032779574519,18.0625,772.0,-504.0
316.0,R,-1.8252306000209988,-2.062928851734876,0.7986462315294366,-0.1227940838701818,-0.19090773911185896,2.7119246604266394,-16.900342494076504,32.6875,752.0,-532.375
317.0,R,0.9933206412440998,3.8054061978156875,1.2526247586701182,2.059227237571592,3.393521440099914,1.252617352383243,12.745824919096174,29.5,758.0,-527.25
318.0,R,-5.580535779675244,-7.625272497248814,-5.310001816009267,-4.493918686494104,-5.811002430130507,-4.011254466871719,-6.2608802345319425,19.75,760.9375,-520.9375
319.0,R,2.6652149941875223,1.7405460781553683,2.018013917441298,0.7735084800522904,1.1016014446962905,1.8154882621500328,3.558047237378968,14.25,773.875,-506.4375
320.0,R,0.8142860094907239,3.1203968385192766,0.9127772681720986,2.0557205426926957,2.14832861066842,0.46068485707586115,-1.8575129082427488,20.25,774.5625,-503.125
321.0,R,-0.6231316380718379,-1.3435994361385697,-0.29273041400967376,-1.0883084832116594,-0.93367252336764,-0.9300586746226609,-3.372814413114593,18.8125,751.6875,-538.0
322.0,R,-0.532763438314103,-0.5410708062987433,-0.1817259351278185,0.009236682588494659,0.41297947193411483,0.2754892381764685,3.089812311501142,20.4375,756.25,-528.9375
323.0,N,2.5222091144496903,2.6333354257631028,2.69379865335855,1.7545144239884378,0.8876603697670795,2.9954337423690403,3.5484445951082915,11.1875,767.375,-514.3125
324.0,N,-4.037297665990712,-4.708363062570393,-5.874853075092935,-4.697661654795025,-4.9598394916788795,-6.117015676047535,-5.600982333839586,26.375,769.25,-507.8125
325.0,N,6.246354801136665,6.856668058199789,6.636131754812758,6.75099468568142,7.121574495824413,6.079652331408961,1.9161839688711935,24.5625,756.6875,-530.5625
326.0,R,-3.1546576425714785,-4.395292042465257,-3.2510154858561835,-4.224926595223064,-4.243198866989859,-3.420218567073319,2.6846460071719567,28.9375,756.6875,-526.1875
327.0,R,-0.7436417814924889,0.2890790592257247,0.3665824019681078,1.2306145718227197,0.5491935701174412,-0.03609784167113332,-3.3952601181524833,40.8125,759.75,-520.25
328.0,R,0.34119052022087815,-0.39611714965735334,0.15205084192466892,0.5228298861846258,0.9515790640612845,2.8349071722851678,3.1529449271323706,36.8125,764.875,-514.25
329.0,R,-2.5715423026237754,-1.599285009166136,-2.6094148539596422,-3.8905098015512256,-5.176132168917858,-6.254393264096403,-4.74329637289248,26.3125,772.4375,-502.875
330.0,R,7.4905437433189785,6.6750602936884995,5.758218134417836,6.076498133501778,8.50842417813284,7.444124599699222,3.019830826885791,34.6875,762.125,-519.5
331.0,R,-5.036724088278173,-3.98088855835053,-3.1198775496030775,-1.818990750296116,-3.4051956640547085,-2.6087306165842246,2.6559994076529345,39.25,758.1875,-523.125
332.0,R,1.5314765635576264,-0.2603019390095965,-0.24853281080787315,-1.4640861561895142,-0.2027740255091585,-0.37810595105589734,-3.571775970046344,37.0,762.1875,-516.9375
333.0,R,-1.259772465919507,-0.7388140065025804,-0.098912389660631,0.022874504804652702,-1.5853371302174957,-0.6896779475793711,3.4285465832611273,33.25,771.6875,-505.5
334.0,R,1.6195119951158048,1.6187728936901238,1.3488583803164602,1.9156702261455631,2.8655612709653417,1.9418319676293674,-3.224236528692545,31.0,764.625,-515.75
335.0,R,-2.5777042911504506,-0.743132957811323,-1.1408033734625358,-2.36843668961261,-1.58316111400008,-1.845467372348594,1.5400258395771056,38.375,762.9375,-519.1875
336.0,R,6.7909439684616855,4.9158810900662395,2.9685233245702274,4.02286866851244,3.2245636574588237,1.5616027475871657,1.3161547083354626,28.3125,768.6875,-510.5625
337.0,R,-10.814213957725606,-11.151468077612527,-6.876567082259633,-8.083409170493251,-8.669114509380556,-4.0794542745113676,-6.240831333982136,30.5625,772.25,-504.8125
338.0,R,9.135576187758192,9.417680715473765,7.30188249726232,8.682843747648949,9.76403333529359,5.896988451838068,5.519808921880177,16.375,753.6875,-534.3125
339.0,R,-3.5500452507936653,-2.703279286545093,-3.088318834767964,-3.901981006774903,-4.644513920614254,-2.8094763611580222,-2.4174410179783368,7.6875,752.9375,-532.6875
340.0,R,-0.38850566160353855,-0.019007575850504766,-0.0020938931522534857,0.15753220847799776,1.6311673298163254,0.10193872206812497,4.61160391347787,11.4375,759.5,-525.3125
341.0,N,-5.837572480135469,-7.368864419436356,-5.1361004281019556,-5.150193475967945,-8.080148067183718,-3.4124256600032816,-8.99344974251887,17.0625,772.875,-503.3125
342.0,N,8.54090617578054,10.201257448192534,8.7905778153699,8.298287395622605,11.385661161731237,5.860475313725631,5.036985532869315,25.0625,766.3125,-517.625
343.0,N,-3.995091442699837,-5.467353411339062,-4.767718352749482,-4.3011578079417205,-5.628853745463413,-2.5581967964416017,0.3227577569316936,41.6875,777.0625,-497.1875
344.0,N,1.5777765718990866,2.6734970173902104,1.0348139310920799,1.8721518953898928,1.5799114270907226,-0.4482190214344023,-1.2122798836076816,46.625,759.0625,-521.3125
345.0,N,-0.4311268264468371,-0.5536142721074772,-0.2996696536949781,-1.2489438037612186,-0.9944707520499024,0.8292901352586494,1.2228721531053146,50.9375,756.9375,-521.3125
346.0,N,0.7570226454191138,0.4702790355447831,0.4959373313064102,0.4363125053849504,1.5997755255173276,-0.5196812697172806,-0.5476447252170312,46.25,758.9375,-519.9375
347.0,N,-0.38768377040646657,-0.3381429750353061,-0.8229378695039526,-0.380708850175551,-1.5423523346021777,-0.3027964680007965,0.9845660002015738,43.625,761.0625,-517.9375
348.0,N,3.566144459770032,3.6634029756965907,3.23653013118166,3.3967568757564712,3.3451808144231117,3.15427602089748,1.7641694403270503,37.8125,767.9375,-509.875
349.0,N,-4.324028939786295,-5.079213238083841,-3.011719011657376,-3.9079324991794153,-3.8116421545637476,-3.57385088317358,-2.790633043540156,41.5,772.125,-504.5625
350.0,N,1.4972557197595338,3.1835295541288953,0.320517032254872,1.9533683917153668,1.9797901116832912,1.1672121754315847,0.5263650492418467,41.625,777.625,-498.1875
351.0,N,-1.2033473210785441,-2.3500181360781824,-0.6124990238989182,-1.2977701000487987,-1.2475577240117715,-0.5126718215516212,0.1111787253943412,36.25,780.5,-497.375
352.0,N,-2.413733705049238,-1.6521272864943044,-0.48456849691393566,-1.1093009197993338,-0.26029466954080954,-1.0517230112000011,-2.04728657481488,35.5,791.6875,-483.25
353.0,N,4.393668255613574,3.628230271940128,1.260215793478742,1.8067711542202105,0.8081773503745933,1.016564930245455,3.12358923756041,38.4375,789.75,-487.1875
354.0,L,-2.210489175044783,-2.336640548350846,-0.7352162225265445,-0.9874255691308956,-0.8722104758557002,-0.37247580195159163,-2.466741390239342,42.8125,778.75,-496.0625
355.0,L,1.3532095870955803,1.1313767138995146,0.3547447710131187,0.8512906528807858,0.4319104705446825,0.6005120754516784,0.2641594041803878,38.0,780.9375,-495.6875
356.0,L,0.37191699970346465,0.1040919319124414,1.6482806033634008,0.22507782281112873,1.0182140477486594,-0.7423385040632141,-0.13401718523830597,40.0,791.0,-486.25
357.0,L,-3.387716590624919,-1.9184420033383307,-4.371420864786029,-1.272777475762182,-3.3087689468828714,1.0342231607182857,3.1943024126961195,53.75,785.5,-485.5625
358.0,L,2.6415794460467605,2.210296567208889,3.6361482046800293,-0.007008329505648817,3.019230287012531,-1.020449032305186,-4.81167107267808,45.125,775.5,-500.1875
359.0,L,-2.464021887187865,-1.3101362169477566,-2.1362756720015934,1.376634627834223,-1.4787492027492928,0.7091289022188401,0.3455766498604789,37.0,776.125,-501.0
360.0,L,3.4900087806909053,2.807855283989463,2.913946477090299,-0.8228380868158284,2.618317073316078,-0.9419736651171079,4.749051189727157,33.375,783.5625,-493.0625
361.0,L,-5.196382017777001,-5.4037686330279,-5.921529692710814,-1.7193035812107693,-5.285730755590749,-0.9712041277941641,-5.127685160915816,31.4375,786.375,-487.875
362.0,L,6.42327030657485,5.20529649875451,6.928693715546881,1.7806890682855772,5.204454313284563,2.498973306325013,3.278683376937472,51.25,768.0,-515.5625
363.0,L,-5.364177481941935,-3.6056730090478526,-5.884612105227454,-0.5097717712175004,-4.05263261608829,-1.859781079273263,-3.6642243287320007,50.1875,802.25,-465.25
364.0,L,6.115320104923545,5.349979339736635,6.411439819024692,1.6684410526053688,5.158989285092336,3.2738859351990297,4.990835647564396,19.0,799.0,-476.8125
365.0,L,-8.826342897897934,-7.235916113310444,-9.279141800942222,-3.1034380823216874,-6.369863895116916,-5.596493651724511,-4.008675892296899,41.125,804.875,-462.1875
366.0,L,5.7497623913679705,1.806782321359512,7.106534915016846,0.9554667193465021,3.4218124289627565,4.582015450184369,1.4237595228959214,16.5,794.0625,-484.25
367.0,L,-3.353619942461175,2.2771890489662656,-3.754334086509294,1.6887934670604892,-0.18386287462389964,0.4048043689322701,2.1639069982758063,32.6875,814.0,-442.4375
368.0,L,1.768963622487371,-1.5937282544102473,4.252937237105466,-1.203961829106205,0.5388575770754914,-2.5193164491082767,-2.2646271128306896,4.5625,777.875,-505.375
369.0,L,0.9617896947388445,0.4893032236284871,-5.532706282192967,-1.3737953232109614,-3.6929501519152965,0.7571744334853852,0.31285523002463606,21.6875,804.0,-462.5625
370.0,L,0.9074228728678294,0.7432585350138051,7.216153056599898,3.559293796603995,6.057184706012294,1.3282326092820456,-0.9498773336888267,4.0,793.0,-485.875
371.0,L,-4.2446644631140185,-2.7646245555386155,-7.747163124793063,-3.7087965011272352,-6.781241965780471,-1.5621298833193566,0.6546909407640588,1.625,794.8125,-477.125
372.0,L,5.477326831670334,3.0963878891807073,7.351892096186886,3.0171323976847484,7.731051876572897,1.7816888528635346,-0.6984120155571545,0.8125,796.75,-478.1875
373.0,L,-3.8747265816592424,-0.48847031764356846,-4.089158066047743,-0.21679487597140906,-5.201853772961203,-0.43495989664329593,1.7956257537822489,12.0,799.125,-470.6875
374.0,R,4.393210966748944,1.6263269184843274,4.825481603814471,2.3749938156699075,5.754951041438298,1.9217376114568978,3.989900649151808,14.5,791.875,-484.0
375.0,R,-0.9675877571203073,0.8176366205218565,-3.142220764252765,-3.5001244452165494,-2.7062126449942627,-2.062064138873698,-6.8019229832662385,14.875,793.1875,-481.625
376.0,R,-0.7992578012031231,-1.4846162524583633,0.6794319930297413,1.9423783351476018,0.37103111246594744,0.6854402166939713,3.146967976397679,22.625,787.8125,-486.875
377.0,R,2.4600761054061175,1.1275501150738183,1.1817887230973525,-0.5320093945421022,0.7147339668774546,1.0229663462177523,5.174127766800409,35.0625,760.375,-525.625
378.0,R,-4.43419467774078,-3.870733945558367,-2.445942420671502,-0.12801564705692361,-3.838193411710182,-0.769914662105738,-8.662660763054976,47.25,781.625,-493.0625
379.0,R,1.7785488430012788,2.7437516233544383,0.7014764421491659,-1.2816724142617177,3.4172742042381086,-2.3596979278682984,6.494517888116987,52.3125,777.0,-498.3125
380.0,R,-2.235831902271905,-3.366154125875577,-1.8281771558366573,-0.528781769915405,-5.418363309334566,0.2682027938507575,-5.514960204775101,45.1875,773.9375,-502.75
381.0,R,4.12126467448111,4.021908562260712,1.9604435706665864,0.4782368325772172,5.022225292089022,-0.16217651378022901,4.660045664847254,42.25,774.6875,-500.875
382.0,R,-3.4603764350473103,-3.609844446174274,-0.9227290382143086,0.798952674423105,-5.228752835377207,2.1394373964498965,-4.251622220180405,33.5,775.8125,-501.5
383.0,R,2.4785429147222917,1.9982184694925584,1.521977617331219,0.13760035128957476,5.889702445302976,-1.3388031196439452,3.2632848669347667,44.1875,761.0,-523.9375
384.0,R,-0.7221100874508589,0.21169188197319364,-0.6265630659403141,-0.08394397488357094,-5.8895697832835125,1.3840313835830766,-1.0741429715331943,34.6875,772.9375,-500.375
385.0,R,1.3139761029429582,1.5652073603535823,0.4318229912672887,0.5768163998484122,6.800833629992978,-2.0876583403745816,-3.0337352742867223,26.25,743.625,-554.0
386.0,R,-7.971717595445827,-9.02432424577407,-6.333895636062423,-5.630337874582805,-11.676711015292389,-4.463864410631802,-3.299560743409138,30.875,787.9375,-482.0625
387.0,R,7.983189547112757,10.329737812856955,7.28687055466392,6.022784057853213,12.585309840550005,7.038433888034246,9.786965533310187,13.4375,775.75,-508.125
388.0,R,-3.2664106341518955,-5.240454369601618,-3.696611047893727,-3.1516876030196497,-9.260028315131537,-2.6944493000139556,-5.715176195278065,19.9375,785.9375,-490.0625
389.0,R,3.910223553762488,2.8220867984761155,3.4786293089226077,3.453644991621293,8.46310507847083,1.3806724315544077,2.589311363699125,32.8125,770.625,-511.3125
390.0,R,1.3326355274684987,2.7309953205695594,1.0620859786538364,1.406619578946233,-3.836181935473199,2.903430270670655,1.8913839925128353,42.25,805.625,-452.875
391.0,R,-5.961924943362625,-5.876645478722055,-5.477712972426985,-5.702881486436654,-0.5030387339852898,-6.503918374397058,-5.4650793595344185,38.5,766.0625,-521.5625
392.0,R,1.880105039387173,2.1487689026010224,3.1324803617312953,3.4373420467993423,-1.5230972767188915,4.347576320604891,2.828178865179826,30.625,788.125,-485.5
393.0,R,2.777538778994245,1.5197854042229997,1.0895551263192904,-0.28503659860225594,4.617893937786094,0.12612729289005575,0.9307548767811021,26.375,782.3125,-495.8125
394.0,R,-2.5761754152075214,-2.091868704133445,-0.4715563812603797,0.3082240754017619,-5.632224878244375,-0.8746472394859536,-0.851558811348247,40.0625,799.875,-463.6875
395.0,R,-2.1427572678537326,-1.7307653363298967,-2.677416722953474,-3.8477546478199174,2.263948431240142,-2.7908066358953887,-2.8556758849972175,63.875,771.875,-509.0
396.0,R,7.295902135031563,4.746125898560739,4.944356231857384,6.642505427072997,-0.49230633697681697,5.3895166147226155,4.291964394373715,45.4375,823.6875,-424.3125
397.0,R,-8.460747899049329,-4.836545976720245,-5.954415306776264,-5.873671797831247,1.4392496391556688,-6.952887599591442,-5.227872883427087,42.375,789.1875,-487.4375
398.0,N,6.1131211617963706,3.2285310962762113,4.642979037855733,3.9524998759901684,-1.5090650268002137,6.503216190741786,5.270954229287741,50.1875,777.9375,-495.5625
399.0,N,-2.693165938000024,-0.7077695431458183,-1.6038726033470252,-1.4643067629017454,4.910570697334899,-4.373748883008997,-3.3372993128185096,51.0,769.5625,-508.4375
400.0,N,-0.9692677166142665,-1.353759752823663,-1.2341999079248964,-1.3825955991271832,-5.138154002605221,1.5845945275384132,2.2064034901160303,47.9375,783.1875,-491.0
401.0,N,1.520404139908274,1.2603083233753114,2.007565875098266,1.8277625519337328,2.8101772330738344,-0.924483924666003,-0.805392536821034,53.5625,778.0625,-497.8125
402.0,N,-1.4100418396044432,0.19894587978034928,-1.749265520711348,-1.4354527546124527,-0.7549195166038053,1.1973081095678908,1.2207140740301385,45.0625,773.875,-502.1875
403.0,N,1.0573081735672225,-1.0522013180646321,0.9798952668126758,0.9145754941509563,-0.4082323060809158,-1.118823094084707,-2.976270901714042,41.6875,756.8125,-524.25
404.0,N,-0.2317252734086494,0.18536033216984413,-0.3311836137238218,-0.5251840825816612,-0.3759977365516242,1.3194987370465734,4.077497239761375,40.75,762.5625,-517.75
405.0,N,1.527287900360292,3.101877353459216,0.6600353195715039,2.134912211183527,2.781294977619139,-0.02165893070323955,-2.8504973680830368,49.625,784.3125,-492.25
406.0,N,2.0964153542031725,-0.3035161167658171,1.4663336256966781,0.5951023963991251,-0.1998942586506032,1.9371057860429632,2.2230696032579718,48.9375,784.8125,-490.0
407.0,N,-4.779501745037254,-2.9066506372505154,-3.1063643875287594,-3.1897544863636513,-2.3041980225795524,-4.119352201304728,-3.4019694240893474,46.375,786.0625,-490.4375
408.0,N,2.3777343286980637,0.6735889305321069,1.9178815798192128,1.6467964789793508,0.5429750125796259,3.169357470551511,0.36045574954144466,49.3125,789.625,-484.5
409.0,N,-1.7687835630379698,0.09663283982511849,-2.741494108095404,-2.3477124779720495,-0.6293329387114459,-2.0747589809017226,3.5662379559528876,53.0625,784.875,-489.25
410.0,N,1.0597350898686637,-0.6341846714259588,2.3648648460388295,2.631495466145452,1.528110848247332,1.4629188236412571,-3.3121245746202237,50.25,774.8125,-501.375
411.0,N,0.9947856119859579,1.8551140023280404,0.8596995307262368,-0.4926425114162447,-0.886994552182208,0.9114903501944134,3.056137935441655,44.125,775.1875,-501.5
412.0,N,-2.1312374752935903,-1.682677969176937,-1.9882119978970143,-1.725095712282549,-0.329662930925428,-1.555240776875993,-4.105310438361068,39.9375,779.5625,-498.875
413.0,N,0.09411567130793219,-0.37244899351596145,0.08393285250990443,0.7925145257025513,-0.14107405481412025,-1.6262746210360146,0.9989484612405668,43.375,778.5625,-497.8125
414.0,N,0.7283876259277012,0.5914312302113849,-0.07491501685236131,0.6198585011974983,0.3048496243599743,1.2468662674148452,-1.4480729323148707,41.8125,776.6875,-499.9375
415.0,N,-0.7014554176437003,0.7319573716370193,0.10638196873582842,-1.1690415914062333,-0.16033114560894624,0.11656413777897774,4.1601954082215595,40.1875,777.0,-502.6875
416.0,N,0.12693537193252905,-0.9024268817918287,-0.48278192211511645,0.21586463010709303,-0.30076333335552297,-0.739321564292034,-3.633711205473609,34.0,779.25,-497.875
417.0,N,-0.6871905241006885,-0.6358196909535877,0.19188375575612032,-0.02709419500331819,0.007441109617701926,0.613585446718682,3.9559119517532264,31.125,778.0625,-498.8125
418.0,N,1.5879167722945438,2.461303036978353,1.429120097293531,1.707510725584913,1.6379009589224598,0.9510435687764454,-1.6789285303405672,35.125,774.8125,-500.75
419.0,N,-1.0952420291486815,-2.650694640443463,-1.3719569606803903,-1.7682848518050969,-1.5979129686879494,0.2967578183238306,0.14675001623630943,36.125,769.8125,-507.8125
420.0,N,0.17112046992403157,1.7311431385466451,1.6094814354809002,1.7973211474578423,1.4546828282594715,-0.19212895213152842,0.16606273383907774,31.125,765.625,-513.5
421.0,N,-0.3547840563870877,-0.7891996443639937,-1.8453533142171783,-1.80673252581834,-0.1539059545307802,-0.9600337021174046,-1.103335183755209,31.875,763.125,-516.875
422.0,N,-1.0298413089869283,-0.6660621624040995,0.8045379837930179,0.7466266938919889,-1.5580991261943078,1.1805969844140645,-0.3780743616601849,27.6875,762.3125,-517.125
423.0,N,2.7383465329957843,0.7945844728525797,0.4663423720255262,-0.03526948785294752,0.5720712533763614,-0.831589791352684,2.5230932613844343,25.0,759.5625,-521.3125
424.0,N,-1.004707011476351,0.06049112745602895,0.062008994568886804,0.03831147016448929,0.4121738005823855,-0.3048817682442853,-2.1014975651378465,30.75,757.3125,-526.1875
425.0,N,0.5361257385574695,0.8546358115279709,-0.17178946539885676,0.6418139735396615,0.10073990168433795,-0.31561532085881616,-0.6813417839575187,33.6875,756.9375,-525.0625
426.0,L,-1.68434913127487,-1.2791598079001552,-0.3496977872983906,-0.8942752856070628,-0.9356552618847223,-0.416215432285898,0.33170156608319423,32.0,756.1875,-528.3125
427.0,L,3.3494847466411555,1.8361589815569996,1.1674694092224536,-0.7858194895665173,0.8343240250050397,1.2949528021516585,-0.07196458666528133,39.125,764.375,-516.0625
428.0,L,-1.224144658305422,-1.361073682467044,0.4846166951175992,3.6113121456819792,1.8472905009571328,1.1535064130282375,-4.900065559096855,23.75,783.25,-489.0
429.0,L,3.5078038365370072,5.435274299873694,1.2346085865377554,0.3612528202786189,0.2800343325386907,0.8280886529235361,9.605376438113403,2.3125,790.75,-482.625
430.0,L,-6.1656342563124955,-7.502990168286354,-2.9118386758500536,-3.665425837213207,-2.0013655466271847,-2.4478744071838228,-5.300505725287245,-10.625,808.375,-462.5625
431.0,L,-1.0690322602457796,0.7714862610894047,-3.0795018624229553,-0.08988903393411343,-1.8479512040478858,-0.6980974037184086,8.014023959508087,28.0625,788.875,-486.125
432.0,L,4.191685832612122,1.6796923127663954,6.068549610086431,2.812652010663288,4.492734159879174,3.2824075015634504,-7.867671578863437,24.1875,777.4375,-500.25
433.0,L,-5.255028192137563,-1.41124084888885,-7.7758818549426385,-4.65998675934157,-6.223968548775882,-4.480579569732594,4.755376708074367,58.875,780.875,-492.375
434.0,L,6.262615732312413,2.7244114960627632,8.366098911105901,4.418339124971314,6.852895019909937,4.403528206702427,-4.115906273817581,14.4375,766.8125,-513.375
435.0,L,-5.344480337719272,-2.3025966673625815,-6.8715981681985125,-2.12464159528116,-5.266272986581302,-4.016310659517469,5.139252595829106,52.625,785.9375,-487.875
436.0,L,5.068581015927225,1.4697373348282026,5.902162980058006,1.0767910813634571,3.324376193393846,3.498734240819943,-7.601702023667321,30.1875,778.5625,-501.6875
437.0,L,-5.346424164787192,-3.214518758005614,-6.054909522649939,-1.6191456897220433,-4.4400523865919475,-2.8479000751254353,3.5041978769997324,20.625,784.125,-488.125
438.0,L,6.391882840787213,5.32429168451919,7.099391122276933,0.48883121221333375,3.5573936587190027,-0.7736186396137972,-1.979728054410054,10.625,784.4375,-485.5
439.0,L,-2.584905707064523,-2.233025205351283,-3.757307072350065,0.7200602307247059,-0.17487098648683058,0.056266886080028146,-0.6155566212147477,15.625,793.625,-487.25
440.0,L,0.21989645214823417,-0.5582395212231056,2.148005201435809,-0.8474249213732341,-0.3649069743320349,0.7789885944918952,3.630634520641999,12.3125,789.5625,-487.9375
441.0,L,2.3358486177854467,2.6137328632146177,0.41980893664230645,3.4240516028452856,2.0504278583585585,2.3489217466592622,-3.144778509019571,-6.4375,785.25,-492.3125
442.0,L,-4.633363094216139,-3.6650287069853595,-5.469081853986317,-4.7340594877939095,-5.078146662965054,-2.37505470747663,10.640565467775513,23.3125,781.3125,-498.5
443.0,L,2.671832991553737,1.2487653400990208,5.256942331006886,2.8171205436306646,5.496994006437831,1.411390856771521,-10.514785179270401,11.0,779.125,-501.1875
444.0,L,-1.9742432103311147,0.7261265705074695,-3.5605461662850475,0.5447678621488025,-3.212856749776415,0.10553340934513313,2.895439430479673,16.9375,774.125,-505.0
445.0,L,3.4714606935128223,1.813579017606462,4.283945742734356,-0.686859508354104,3.696483369052101,-0.3775107355432781,-2.0828749054862996,8.6875,782.5,-490.1875
446.0,L,-3.107469899602591,-2.1653199080141503,-5.5704753624514325,-0.7011078126993462,-4.902226796589043,-1.7601223306470766,2.6465175914782013,17.75,813.375,-452.9375
447.0,L,1.7284625289527924,0.5738001446851988,4.175825474506289,-0.42883395512994527,2.7936123392588668,1.8919289183418084,-2.1313858790323135,4.0,783.8125,-492.625
448.0,L,-1.4587261455287899,-1.6446037951171593,-1.230971135084896,1.955640572131998,-0.7121080460375981,-0.4668949999049728,0.19992779914991068,0.1875,796.1875,-480.5625
449.0,L,0.129386960985285,0.6726202759786413,0.7432559429693171,-2.3796771687210647,-0.31812491911294605,-1.1275881406597104,-2.168821121824136,18.5625,771.1875,-505.3125
450.0,L,0.6104625395040785,0.5164261624926485,-0.4751997612851201,1.1869437636299809,0.1397527500924425,1.2460162521287663,2.084171810837801,24.125,780.0,-502.5
451.0,L,-1.3257391755138588,-0.6943336991983852,-1.8762279509927293,-1.3431733071097873,-1.9124409926142953,-2.069677658743989,0.7937287035570039,23.9375,781.9375,-494.6875
452.0,L,2.769000858681221,-0.5745833490476621,3.4229954857698623,2.3953995780788024,4.069089149421329,2.5179500000532897,-0.9738461215617781,-3.75,785.9375,-496.5
453.0,L,-5.943956124916691,-0.6997092323573606,-6.435439027296343,-4.241654047370789,-5.6519525846553735,-0.7631079613177028,0.8136193280576554,-20.625,783.5,-494.1875
454.0,L,5.214542741401037,1.8425133066005674,6.803853320838854,3.427494506441879,5.213346970877596,1.0685149922732986,-1.3143890230121795,-6.75,766.75,-514.5625
455.0,L,-5.13944836643733,-2.7252401975009914,-5.548281733510721,-1.5127262984797856,-3.2059708612088813,-1.752439084230874,1.6222773018148902,8.875,774.4375,-503.4375
456.0,L,6.53148596494639,4.214869193968445,5.865937870707632,2.0929897723382767,2.959384710567421,2.151295244137832,-2.0377605284602778,28.0625,762.375,-519.8125
457.0,L,-5.716991079160829,-4.671140352342272,-6.421494493071307,-3.035163006870642,-4.161683730581627,-3.49989898553925,-2.702116454197322,33.125,774.0,-506.25
458.0,L,6.39104888856227,5.375153758251056,7.874800099681651,3.18990479774671,3.9564104219560803,3.5611197990575043,7.550591275982369,37.25,778.9375,-496.3125
459.0,L,-4.127067491225635,-4.536733052393905,-5.8735372310767175,-1.2847906648910743,-0.853210678821597,-1.5676128275399506,-6.934711039058435,11.6875,803.3125,-464.8125
460.0,L,1.0513875170987357,2.408027716199746,3.993691937895332,0.4351188019153069,-1.3426917001959047,-0.3838988481509573,6.427483153450876,4.1875,799.5,-472.5625
461.0,L,0.4502397596660212,-1.6928376542991945,-1.6077388746969237,-0.1992908638961312,2.7769097164788326,0.5638079202489539,-7.450468948325124,-25.5625,782.6875,-498.6875
462.0,L,-1.071214639658485,3.224457416811425,-1.9024421120764585,-0.42815901023905273,-4.860304443044292,1.0636347182469663,9.454183747133357,10.4375,807.625,-450.8125
463.0,L,-0.8093443531025262,-4.117699679623253,0.9735099816073484,-0.3543161813843966,4.406584127925982,-1.7353462944556755,-8.894599935051156,1.8125,793.625,-482.125
464.0,L,-0.5515824432323662,1.8717904170661401,-3.8644721249958454,-0.6048816519178942,-4.796572596420881,0.3957046380015456,8.055063003160129,-0.4375,802.0,-471.0
465.0,L,0.2063938545780111,-1.4561289018302477,5.567645105244956,-0.28181454407420187,4.705891148832714,2.1883735158804787,-5.507944833959248,-29.875,795.875,-476.8125
466.0,L,-1.9136132822663117,0.8621289779044079,-5.594413059675799,0.8724571584998084,-5.420113747928944,-2.803298848112772,0.7318124983326506,-2.1875,808.75,-452.1875
467.0,L,7.326665109112701,3.1075733399125025,7.89499815615473,1.9005650492280066,8.301254919323164,3.529447306491136,3.123326223389871,-28.5625,807.6875,-459.8125
468.0,L,-5.66535275895774,-1.9167328048966694,-7.581244439916803,-1.5495145983141856,-6.509160384811419,-5.184693289637773,-3.6850503051470116,-6.0,796.375,-476.1875
469.0,L,3.562136112300779,-1.3350943197360838,6.71110987500615,-0.2959161415320407,3.9189276647694307,4.2038827742835165,3.5953606097447963,-14.8125,785.625,-490.375
470.0,L,-4.857299848449772,-0.06389938825069479,-5.9244728071477315,0.0971828009399178,-1.5699715697782703,-3.3764732406322615,-5.937616574226673,-21.625,790.5625,-487.25
471.0,L,6.85267843072857,1.7738094005484106,8.008753789796716,1.3631429488215225,0.18284550736234179,2.1489538844863487,4.763620827079312,20.0625,786.8125,-488.4375
472.0,L,-2.022423121193122,-0.3870392051325407,-2.9058042518281737,1.5511159009567173,2.831995465167785,0.8123870147153262,-0.3822258683017401,46.0625,784.75,-491.0625
473.0,L,-3.1922192279736246,-0.5501246206252599,-2.7483475175745724,-4.2228381504012145,-6.1673371867882,-0.19194421830415148,0.27224649847174803,11.375,796.5,-477.25
474.0,L,4.75056087518553,1.1382507514689082,3.778519994306701,3.773899185962092,5.771394342006766,0.1805979543677272,-0.16594033390493768,-17.625,782.375,-502.3125
475.0,L,-6.111229365300332,-1.01000356216427,-8.906917030084065,-5.398605427635215,-8.665691590859593,-3.0195812919422282,-1.8750493929626182,2.0,786.0625,-492.9375
476.0,L,0.72021068930218,-2.5706664326403144,5.838841136938141,2.032479092510896,7.224497046093951,1.3490529269706721,-0.28130065760254297,4.3125,769.1875,-512.5
477.0,L,-1.136541203669458,0.30651981203227663,-4.110563693874641,-0.5645047874344254,-3.568399729678836,-0.3722214868246292,0.5332136755114616,49.5,774.25,-497.625
478.0,L,5.294287659283015,3.278429652995376,6.300382085113847,1.3556604737386815,2.5061491824206428,1.2808689633257218,-1.0712967232575048,8.25,784.0,-492.5625
479.0,L,-6.60157633436234,-3.887473746690928,-6.5411128292865,-0.4343605344911876,-1.2137621613419742,-0.5543753366556756,1.5792914319288265,9.6875,788.0,-487.0
480.0,L,9.947865551417838,6.524702286379354,11.024287216018696,3.8759798791925033,3.9481104539545533,1.1372810114411058,0.905900213096018,21.8125,770.5,-516.375
481.0,L,-9.948925361974581,-7.756449434452713,-9.08643605797252,-4.124959158691617,-1.2875474749192504,-2.333285700294005,-6.0712410868838145,23.625,798.0625,-466.8125
482.0,L,4.606344340587578,5.727507067314453,2.0553231228048454,0.8802565728901253,-4.9126858267530515,0.7207167116417583,8.528910393423901,3.0625,783.6875,-500.375
483.0,L,-0.4436771780412043,-2.65117656396736,0.864556556045585,0.553168335871718,6.222937687778023,0.09252431263005792,-4.937587675560546,-1.5,791.625,-482.875
484.0,L,-0.4969898043802973,0.41082235124716954,-2.757622954433997,-0.4733543498666208,-7.082086648105011,0.52724409397202,5.512815356694851,16.125,791.0625,-487.1875
485.0,R,-3.5667105203713363,-4.661539428077923,0.1710528257740757,-4.164880709893297,3.247997607173661,-1.9999980073380401,-8.974613665001351,0.0,804.1875,-469.3125
486.0,R,12.670617147509867,13.60947522301476,8.156812772903454,9.055484425853988,6.161534776845384,5.493173195698976,5.712433758811003,-12.5,818.625,-440.1875
487.0,R,-12.971290448443282,-10.197846458589597,-9.956612771707544,-8.241347256470966,-5.580762048868615,-7.229713209413659,-0.8743511019336914,-3.3125,812.6875,-460.5
488.0,R,6.21228850420432,1.8312986034730125,5.202534155555693,5.351530645245997,-3.4923081964361335,4.933886888210005,1.1309496148858729,23.8125,786.25,-482.25
489.0,R,-0.5431342474132254,1.5042619245065534,0.7706573957731372,-0.22128444863147728,9.67919284773141,-0.5276716531943436,0.5664350042783289,0.5,753.4375,-538.6875
490.0,R,-3.7414868184918966,-3.8654063429864034,-5.079947309445598,-3.82888044904489,-7.584458149028911,-2.6923339666359376,-1.2109468032811563,16.0,749.125,-542.8125
491.0,R,7.897315617179689,2.941125399040554,7.619667980508721,6.493876993755021,0.39942700273165066,4.839785185298465,1.0306820449449279,23.0625,752.25,-535.3125
492.0,R,-6.667206393449267,-0.3094497021380148,-5.933916998588309,-5.384749795745285,2.2940364252682204,-3.596726596855773,-2.7473250021101667,24.0,743.625,-551.0
493.0,R,1.6623372617920003,-2.401335055108393,1.9831947792663172,2.0784717844321348,-3.3096097861752813,2.5419013135425326,4.237406801202782,20.0,749.875,-532.6875
494.0,R,0.7747090562332142,4.901085930155857,0.057923386619405846,0.03570423563614349,5.36147020919287,-2.064275479052083,-2.5260926399722936,23.25,752.4375,-539.6875
495.0,R,-4.47634281324655,-4.969064981991257,-2.8937672727240833,-2.2279229977149653,-3.220240968969185,-1.5091884578231773,-3.108819920014411,19.0625,760.375,-527.875
496.0,R,8.12689676470789,4.159832670921603,4.5077415772768585,3.602197371373624,-2.0791003005524296,4.072066178802384,4.724462350472015,32.375,734.4375,-551.125
497.0,R,-3.4728070089360408,-4.020750998019136,-4.324368678097554,-5.910656749213537,2.2183221593708606,-4.066860863585659,-5.292157276145075,47.875,720.6875,-583.4375
498.0,R,-12.737995088878163,4.825691778435118,2.590172256733699,5.632492853655039,1.8754504676297867,3.4528613819549654,7.447459769143643,63.0,728.75,-562.8125
499.0,R,13.012343125045168,-5.960594887737036,-1.1355374842757444,-2.121829366881641,-6.745311475840314,-1.0867502035209304,-5.217799542920755,53.1875,760.5,-525.1875
500.0,R,-4.380166019338166,0.32498621755313783,-1.9999491131383698,-4.451827571736301,4.480478698379308,-4.581784635294396,-3.7679782894655003,59.6875,719.1875,-578.25
501.0,R,0.687151482903093,1.8510172106151148,2.651182994664053,5.356497799650632,-0.5922432520763402,5.3724040072037,8.364760201279598,25.1875,756.75,-526.5
502.0,R,4.415365889934342,0.7065835476541986,1.0068401005166225,-0.19208151562285547,2.2394670197015936,-0.8073411548523863,-0.0379335298861879,12.125,756.25,-536.625
503.0,R,-2.3021270698362435,1.775798066948707,-2.4770535212302454,-1.4548231934275733,0.5837281222139732,-2.6076967920492873,-13.126040181582272,57.8125,737.625,-556.6875
504.0,R,-5.137583257057585,-3.6407893848827224,-0.5467431105939468,0.1766389511376028,-6.137504011276463,2.824602725014126,9.922618040839316,29.6875,769.4375,-499.75
505.0,R,7.292523623196728,6.997958521598831,6.589756868015666,4.511599701110469,11.50503291579757,1.5640998665419592,3.771577969304075,47.8125,743.875,-552.0625
506.0,R,-1.5529483492993181,-10.453909489170298,-9.17576386978569,-8.410985725021806,-9.79649603743272,-5.122217569453404,-7.434970502665168,47.25,757.8125,-532.8125
507.0,R,7.106219654729042,12.787103039029555,10.262320350423979,10.909713345180341,6.178167364105715,7.433898703037057,6.990353272325514,19.1875,763.5625,-510.3125
508.0,R,-8.158987032989659,-6.714241587362329,-5.005561006880491,-6.9476672549156975,-1.7776379223353065,-5.717201319514941,-2.868651605152334,20.1875,737.875,-558.8125
509.0,R,-1.1085654903310524,-0.15761032613755743,-1.8423624221654769,0.09104551026115348,-1.4148968778359976,-0.6341782266670861,-1.4845658889793636,37.0,740.75,-547.3125
510.0,R,9.090133781111037,3.0311870088293804,4.18387830878195,3.4600384510642437,-4.981920024011568,4.717295901803497,5.965904657022529,13.375,776.625,-509.25
511.0,R,-13.293547930126499,-8.069934559759194,-7.915474582421385,-8.978243225598519,4.2846739079788065,-8.076931068667328,-9.886569862336376,53.875,735.25,-556.4375
512.0,R,4.935771957775095,3.320305786400111,3.9363830189250693,7.083395182751025,-0.9801649194322718,4.945594905332191,3.9527602413707625,31.6875,770.5625,-508.4375
513.0,R,9.795416015153522,10.713209794353306,7.432145014137422,4.831524255946205,6.593961969938009,5.837434625045156,7.583831167757651,37.8125,811.5,-446.0
514.0,R,-18.310430096044918,-16.622963224926437,-13.971753976940361,-12.771278343545585,-8.288205050873014,-12.60485751125171,-16.35759965745276,28.6875,772.25,-518.875
515.0,R,15.062424463402115,13.068222014340037,13.03855948148069,12.681969866969979,3.150207297054916,14.665844080036775,17.82512297402394,16.9375,756.0625,-518.8125
516.0,R,-4.8906644635064,-5.197515864988344,-4.491178479112632,-4.812194628329384,6.77592080672263,-9.406726306817706,-7.613983722899918,11.875,782.5625,-497.3125
517.0,R,-7.302415004190731,-6.213591984872881,-7.139335038830407,-6.4328629449729195,-9.585381518474554,-2.8632159506962727,-8.616514692289963,53.6875,780.0,-504.1875
518.0,R,13.677481969166077,11.469176233596853,12.881439373499266,12.075789927668037,4.34857515332165,12.139165752478249,18.230281333698297,66.25,778.6875,-468.125
519.0,R,-7.203044756893504,-5.197079104007144,-7.803160928190442,-7.460020319448357,0.8922692116711787,-8.640470398177282,-9.668409187914872,34.6875,771.875,-520.5
520.0,R,-1.6348342761663495,0.34635768247578835,1.981450173278412,1.262051951557885,-1.1564048295942575,1.060020864754762,0.44098963303700295,-0.3125,773.6875,-508.625
521.0,R,5.1852627507168725,0.37316012418762423,0.19186011445186338,2.1296552364622423,-4.855118961597124,2.6410370489060266,2.976668448237379,12.8125,791.5625,-478.3125
522.0,R,-4.9873579947891855,-3.3359379187699214,-3.0283327353304847,-5.818630439013268,4.656972471266443,-5.498068441937184,-8.461755808068045,51.9375,776.1875,-504.875
523.0,R,-2.260416000383806,0.8295740653445491,0.5793451689517701,2.9515719787808403,-3.071123793249552,2.013836820874755,6.663939731062918,17.5625,789.4375,-485.1875
524.0,R,4.651789297087275,-0.6362553348799697,0.006673908954045373,-0.7154485830962826,1.0130419510801403,1.0327921852459159,-2.2022365315763417,-0.8125,795.3125,-473.625
525.0,R,-2.0112528087741843,2.4142390568506,-1.1443756906685412,-1.5510106635980063,1.0261938128553143,-5.082626435805915,-6.849485843853293,44.0,771.375,-515.1875
526.0,R,3.985514479895743,0.44868525797157915,5.277402378593821,6.704798957357418,-0.5388588486659482,10.773236878190291,13.323565800546561,45.6875,774.25,-490.625
527.0,R,3.403058471295335,7.5048668993870375,0.2358926169834449,-1.4752183054491188,7.848574833012032,-7.012742645692159,-7.702414748193903,40.3125,775.3125,-503.6875
528.0,R,-11.264888633399291,-13.210022637446869,-6.245746524566302,-6.011867080243636,-9.985121197668072,-1.471236785830929,-4.324794853234378,-19.0625,798.875,-477.5625
529.0,R,6.5564173680528635,3.914524831648405,2.7026038442737614,3.7551006950534855,-5.166324397886143,3.155159206546253,6.0610592393857985,33.375,789.0,-480.25
530.0,N,-5.7628308846255845,-3.285809834021081,-4.522223082581423,-6.231751483581369,6.9848390747532685,-5.762392982049086,-7.4963421880852,84.0625,760.3125,-519.6875
531.0,N,1.7525312992396247,1.9865459828530156,4.925389733237908,5.322418325310849,0.3803118869516252,4.301187167749858,6.0262295144379525,45.0625,780.0,-492.3125
532.0,N,5.444915702220866,2.8939639813379694,2.7991974343863126,1.6933999829383415,0.6050461092947752,2.6415683645213606,2.916303748844913,46.5625,753.125,-528.75
533.0,N,-14.691472973668919,-7.718368642437302,-12.264786484878494,-7.400284426130002,-4.424042367071207,-8.978522555101845,-0.40838423943777435,47.0625,765.0625,-511.3125
534.0,N,31.31737262973628,19.21773315671558,23.787773146971897,19.05396238814284,14.144400868474763,17.63941808841021,7.211197846225456,43.0625,765.5,-512.0
535.0,N,-33.94771036150513,-22.537039460447684,-25.781189297922648,-22.67420173572863,-17.90610540440509,-17.963562418447125,-12.097255816396641,38.0,745.3125,-545.8125
536.0,N,20.890489802432,15.438414516619064,16.31825391063267,13.943251064784382,11.983725026155168,9.700738023845926,6.300629726339006,31.8125,738.1875,-557.5
537.0,N,-18.176502143640885,-13.717676457339628,-14.12497374244686,-11.965349414103581,-10.822402460111267,-9.064310776276466,-6.916035156054812,42.6875,751.0625,-534.4375
538.0,N,12.463293313438935,7.2300318587904515,10.99432894631505,8.304269157111104,6.717752296434554,9.27974937288646,4.1856008448427255,58.25,752.8125,-530.75
539.0,N,12.627215045225643,9.743850442204812,6.287074840814992,6.817124456316075,5.461883205523904,3.73743100595644,4.151239662585589,48.125,747.8125,-541.625
540.0,N,-17.793833749611775,-12.185843130941977,-9.706237653180125,-8.8166048772106,-6.7655503249913425,-7.032006613027604,-5.089293855207747,43.9375,751.9375,-531.875
541.0,N,5.787942778365088,4.125149439237213,2.5268515473672295,2.0565145659165744,1.866205858665239,0.388983227266855,-0.14764200007721706,45.8125,760.8125,-517.0625
542.0,N,8.849621287817682,4.545267462687205,7.0403671839306865,6.011869217067178,3.079031162824087,8.36973597999439,8.506003674960363,50.375,759.1875,-522.0
543.0,N,-17.71531472667845,-8.932588160412202,-13.633987875400102,-11.1943472276795,-5.589512179564447,-14.581523511238442,-13.43974291323332,47.0,756.125,-524.875
544.0,N,15.301560236775211,8.33142422661261,13.489789235861801,10.231387710218822,5.590480098740527,14.704945920873085,12.915210395387533,43.4375,760.8125,-519.625
545.0,N,-9.667248354847409,-5.3381504751995115,-10.081039825929725,-6.614138306303423,-4.774275230725725,-9.544632137855023,-9.23006455211827,40.25,763.0,-517.0
546.0,N,-2.751441705306852,-1.8998848299865458,-0.7917023508537191,-2.315137283021153,-1.6367698710088279,-0.8879916424421035,2.57095268299472,43.9375,762.25,-517.25
547.0,N,13.960057525999794,6.948772608499348,10.509816609891056,9.255837767383957,5.9169161099878025,7.589714645058524,0.5580258414302006,41.1875,762.0,-516.4375
548.0,N,-9.121201303482081,-3.9092419716668503,-6.47992081754932,-4.811442383300963,-2.8614704589833058,-3.5248629944070458,0.6317148941374506,33.9375,754.5625,-533.375
549.0,N,1.3607747602329945,1.0803556168333157,0.52591393946268,0.2551424947385376,1.4496965071239065,-2.5975994539017258,-0.4528566421312316,31.4375,747.1875,-546.1875
550.0,N,0.5180112492647955,0.567166467408419,-0.38900934915990776,-0.9003602283784913,-1.1860205022357668,0.9371408646663977,0.47464456453948106,30.875,741.875,-552.1875
551.0,N,-5.086624153328285,-3.441988880968781,-3.965906694312457,-2.9422106575857763,-3.7034696274284022,-1.8534175954331122,-4.846831408447794,28.0,742.0625,-549.375
552.0,N,5.663679294371916,3.6214667565262526,6.145609756517411,5.138151452327374,6.331933499003386,4.365465478155125,7.072785838397443,28.125,744.8125,-551.9375
553.0,N,-0.32948953348333543,1.0781211104248962,-1.0049865469961414,0.15036691590879492,-1.1664858256747752,0.35489680853974503,-0.7959577750906582,28.5625,742.8125,-545.5
554.0,N,-11.71992001914058,-10.222344753037977,-11.78265162917517,-11.161853749570863,-8.822504775706626,-10.415505339887359,-10.229783890569877,29.0625,741.375,-549.75
555.0,N,7.717063646339827,5.45103225986455,8.677855593287264,7.58601019650747,5.786773161883249,5.5807790893092335,6.866851940705532,33.125,747.5625,-543.1875
556.0,N,19.191591061739008,15.352341816826785,15.718823205017886,13.21903009826472,10.215179502086176,14.071520858142666,7.6566735544301245,35.0,753.5625,-532.3125
557.0,N,-22.60593401560564,-20.79317653005676,-19.590010306668134,-17.174101946303338,-12.659400557736014,-15.568267955826284,-12.0490639772404,19.5,745.9375,-546.375
558.0,N,3.95542824230963,9.007425755942087,4.822653328887265,4.751275528482887,3.5807657009906455,3.694942093324568,8.042913767878773,18.0,750.0,-538.1875
559.0,N,6.0979378643986335,-2.240524306882817,4.36908409932368,2.7337208327295692,1.7844833780609237,4.839708461232369,-1.788519501821716,24.375,753.5625,-532.25
560.0,N,-12.28477426145984,-4.979990885146586,-10.49325234743615,-8.027981010085945,-6.734981973961941,-9.093748825105248,-3.2210092470779896,20.625,743.375,-550.5
561.0,N,6.530857766681236,3.4212865154880006,4.944947012066282,4.839993308913958,3.779325607940056,4.811019950522648,-0.06661627499358122,12.875,739.25,-553.25
562.0,N,3.2355766368370316,3.9540174409199933,3.662918173132223,2.2246601067715774,2.637087942040135,2.855382238420109,2.9686095094885587,7.3125,740.4375,-554.75
563.0,N,-13.645333054794413,-8.925901356574963,-12.201783653005707,-10.228377733537421,-7.991666527294864,-11.961509941783559,-5.855838912190435,5.6875,744.75,-549.0625
564.0,N,16.11254172977814,10.241526552196065,13.027086059685324,11.682526464088706,8.884922596098358,11.177320575104133,6.40587043562291,12.5625,750.5625,-537.5625
565.0,N,0.6429430402187972,2.7777366268687294,-1.3856079806865083,-0.20337010482688675,1.237048214153855,-1.0199815028515882,-0.4694800458597706,16.4375,751.6875,-536.5625
566.0,N,-7.045386939709719,-8.286782779413812,-0.6854006098564046,-3.2265402107373986,-5.670653764599825,-0.9978948719731838,-3.1894030896502903,20.25,747.4375,-543.375
567.0,N,1.8068318207763148,3.060328929931006,-1.8362738950554376,-0.43238895713214764,2.3936929029266865,-1.1846374678653004,3.0959083183148923,18.9375,756.25,-527.9375
568.0,N,0.2686271078360115,-0.991000832832486,0.4804650251530976,1.3449257447607548,0.5232319793628823,0.17580511649850358,-2.0537929467550473,24.875,773.1875,-503.5
569.0,R,-0.012711038824984712,0.8837250813364769,-0.5942901625955083,-0.9613825667467809,-1.7879974178023343,-0.9462222277378046,0.10600755621363873,24.9375,773.6875,-503.6875
570.0,R,-0.765112921513278,1.7853790593111807,1.3011136580191869,-0.49589386847733874,8.370043335725478,1.881207418478383,1.1424193054374352,33.8125,771.75,-502.875
571.0,R,-0.4762247776289264,-2.108852946568374,-0.4088640108926935,1.5565865747383119,-6.502874383913952,-0.6180794980722354,1.154384649157845,25.0,781.0625,-502.5625
572.0,R,-1.662798042145253,-3.101439547398487,-1.5795545345108777,-1.7424434356849354,-8.56681211325914,-0.15160679008499164,-3.3863701271449154,22.1875,766.3125,-514.9375
573.0,R,0.8832635628736188,5.2915015965107095,-0.7036890965422669,0.2961821996268478,6.9029360520081555,-0.6290045899984341,1.3794805999517257,18.125,762.0,-521.8125
574.0,R,2.631170046052036,-3.353529127383424,4.273971420119167,1.8150353145214853,-0.6677005017305928,1.970155798154512,1.3329476703116074,25.25,773.5,-509.875
575.0,R,-2.9033556833067804,2.2102442841365093,-4.246748351817971,-1.7366301589381028,-3.5233822667710255,-2.2063703535931607,0.9468624021147064,25.5,769.375,-515.1875
576.0,R,1.568048055489642,-0.8580372402110704,3.155875051086048,0.5668196525623498,7.15378758176444,0.7813162245522695,-2.320365845803034,28.25,766.8125,-517.5625
577.0,R,-0.6481377906200232,-1.6930015022665152,-2.5758685276892748,0.6270897022450247,-6.2553031778732,0.6260222942378915,2.244256261550786,9.9375,771.0,-505.25
578.0,R,0.051344447977668094,-0.9653435722368396,0.5371312370616049,-3.0693711829203223,4.953363780851524,-2.2728728470480393,-5.307588154388199,10.125,735.8125,-567.5
579.0,R,-0.44258376528947063,2.258556300411323,1.8945099794364741,3.3965440416958685,-0.6409261653159947,2.761570752164811,6.09257069690605,11.125,759.375,-523.5625
580.0,R,1.2770529490252158,-0.5767438730887167,-1.7461393572345867,-1.7396056154435109,-1.0562251777470413,-2.050521164752655,-1.793674558788001,45.3125,760.125,-525.0
581.0,R,-3.667317076228498,-1.819431547355005,-2.4993182736433086,-2.132966105353925,-1.2170865339050523,-1.9555837745582412,-3.713787040900338,60.75,757.1875,-531.5
582.0,R,3.7443177688477225,1.7765155724396182,3.669580403576549,4.488606877668901,-0.22149258696984908,4.6008755334164855,5.38335267641025,26.1875,790.6875,-470.75
583.0,R,0.5953557519056539,0.9833438767640723,0.4776404644547633,-1.8817692709311187,7.854356672671687,-1.2827503880742739,-4.67821832149082,19.8125,745.625,-555.125
584.0,R,-1.470833791791426,-0.40540430135098066,-0.8845657192926474,1.1154917369620896,-4.160586971975763,-0.21280442113061304,1.8920429664788412,34.0,764.75,-518.0625
585.0,R,1.0466011578727135,-2.2962427989746512,-0.7263268601545435,-1.8417984360369897,-7.168324588171472,0.06790993769503348,-0.13404784395107253,59.0,751.0,-534.75
586.0,R,-3.6586321346777777,-0.07065886949413334,-2.026193291453828,-1.9320625684878774,6.100486171279006,-4.603793915630013,-1.2234836216263147,65.875,739.125,-551.0
587.0,R,5.09998258001656,2.279270364877222,4.012306888700677,4.881518673098645,-2.3235886991612316,8.538391059626619,4.359068284615787,34.0,748.1875,-533.6875
588.0,R,-0.9571094563006145,2.406863267691129,-1.5643041714323398,-1.9723397816497403,5.570712957222541,-4.827728791982515,0.38740704374663437,39.625,720.6875,-577.75
589.0,R,0.005767142765963399,-1.2697339161033825,2.5983912274419825,1.3758078323077443,-1.3482734704155355,1.396652130426479,-2.4044766232728523,42.0625,727.75,-569.3125
590.0,R,-2.1229603836815403,-2.4528219478441087,-5.083384459310902,-4.48489109906281,-8.037468493219375,-1.8715889436514908,2.4517906242360703,3.875,756.8125,-530.9375
591.0,R,-0.2904213571427893,1.0841969696847136,1.1976628530704125,1.8350979278507138,7.765603679924294,-0.1445671750573815,-4.450758473622391,9.625,734.4375,-563.0625
592.0,R,1.0505646573813066,-0.7730049953753805,-0.9195538148576736,-0.26181651114184706,-7.8484007686236,-0.09753732613331806,-1.5925582274957975,18.1875,745.5,-545.75
593.0,R,0.4773170450353166,1.347285393609729,3.2820059765028606,1.5864563643455716,9.235621470613925,-0.33818735315066895,1.4578203225187312,36.3125,737.75,-556.25
594.0,R,-0.12462554133285994,-1.4843483878074595,-0.8087055675714243,1.0270118641873494,-5.581567636664746,5.5821370580383025,5.175660681676354,40.375,761.3125,-519.0
595.0,R,2.4562139960602285,2.7643068794431027,1.0810028810382868,-0.79071672658536,6.938371007265789,-4.019313772333585,-2.3119206224388718,26.625,744.625,-550.875
596.0,R,-3.030274181148012,-2.421520090199513,-0.404684756619428,1.1106955080852141,-2.862892555109496,1.326153914996382,-1.2255237234973597,27.625,754.0625,-533.0625
597.0,R,8.277245561430812,6.766484172444645,3.4285525728211876,2.4207993855547967,-4.817830181547651,1.4270492295414614,0.6934925702573037,80.3125,722.8125,-567.0625
598.0,R,-10.62136168677129,-10.139928452955749,-7.77346141495293,-6.875059142111186,1.7566830729071143,-5.401450525315626,-2.6415057580853936,66.0625,720.0,-581.625
599.0,R,6.164938221462808,8.123351514840339,7.345152585113932,7.387462316413165,2.3534565828869427,6.526831846186439,3.780968477408843,36.4375,751.3125,-530.25
600.0,R,-2.437847719735257,-4.39867309253721,-4.034135551337405,-4.6898149685917065,2.6887248138554343,-3.7946160363881516,0.5193422531819879,36.1875,747.875,-543.0625
601.0,R,3.830349286757193,4.347462256664006,3.4327162837566876,3.8500351854273576,0.5422274034965303,1.8517633746398345,-1.9497018410066984,28.0,757.625,-532.125
602.0,R,-7.5275940937457655,-7.4527478270598495,-4.426203952621946,-5.037660013416737,-12.211295299155427,-0.757077763662798,0.8085395929994709,71.75,775.3125,-495.8125
603.0,R,3.3313583032922853,2.9148006104817688,0.7608641610200757,0.24109446419971778,9.622232133843966,-3.552056386665306,-2.700137858763761,61.0625,749.625,-538.375
604.0,R,6.9753478192381175,6.033229459385275,7.717248189720924,8.61623417263916,2.9756293783305154,10.431547769723204,6.64716716550192,33.375,772.375,-507.125
605.0,R,-8.936347242555025,-4.1112249567437775,-9.623154061195972,-8.814489076757654,-2.170776773395649,-10.40960456966086,-2.9590092248988005,9.75,752.9375,-538.4375
606.0,R,-1.6905831032798087,-5.266884066047624,-0.8358727232132951,-2.3244114755513956,-4.362921632802047,-1.494527733341941,-4.750799102348517,53.4375,736.5,-554.625
607.0,R,8.401925278185534,6.474081849317106,7.1116878744617935,8.832940688600289,1.0041283269999204,10.078680424644553,5.040573735625035,78.25,740.875,-539.75
608.0,R,-6.385831814300124,-1.913819833363892,-4.779945607398913,-6.52957790476904,3.585603837340276,-8.62438053215874,-2.8466909332318475,60.9375,722.5,-579.1875
609.0,R,-0.2381526875454556,-1.6157912368260705,0.6177771385693017,1.4872391039901205,-2.9079007362667877,2.9390342092995403,-1.0612325464789618,46.6875,757.25,-529.5625
610.0,R,3.012199999585457,-2.238439316095413,0.07316398291034602,-1.2506180122715072,-6.853878625586132,-1.375818116471591,0.5102926762597763,32.3125,766.9375,-516.4375
611.0,R,-3.216771232902217,2.260394351417983,-1.0554463682851838,-1.1278499010406695,7.266970967209967,-0.86495063112769,0.47478522677997714,41.0,751.5625,-537.1875
612.0,R,4.946086815918785,1.6767719080456778,3.3967737774480287,6.607354924781784,-0.15024000545584465,5.074002895309856,1.6620468506556398,19.8125,732.625,-563.6875
613.0,R,-2.872203031987562,1.168394948901231,-1.5546376905665102,-4.433534231681837,1.8683181218789202,-4.081069623756498,-2.6787104872824377,34.875,737.5625,-560.625
614.0,R,-6.589883278337591,-8.89561751965886,-5.338284369432466,-4.448019023630108,-5.117516699047402,-3.9392877593106115,-3.940404930904677,59.5,773.8125,-502.6875
615.0,R,7.680509668455111,7.6558710039659665,5.507439251720525,6.692901527577378,-0.8899040597754511,7.32327262911115,8.089871990970474,56.5625,790.8125,-471.3125
616.0,R,-2.857441969071524,-1.498273697331112,-0.9768397846431103,-3.7434315414106756,5.156445164580958,-3.7597770813978744,-4.899541320256437,62.75,745.75,-545.0
617.0,R,4.956176646051129,3.838729819062965,4.763427258278096,6.426395281497687,0.708047112907102,6.112195776923707,7.740441233003172,72.25,740.25,-541.375
618.0,N,0.04517813861180457,1.847988989162096,-1.9518897148952883,-1.9074394926385903,4.832946867596145,-3.640292505127828,-5.098083155209504,130.8125,744.875,-530.25
619.0,N,-11.881384753665639,-11.443765715915879,-7.789365361169622,-8.026546798531655,-9.465840495552236,-4.436042279933824,-2.399748282278252,86.4375,750.6875,-533.875
620.0,N,11.476060599409932,8.066037520907148,8.238361989915703,9.007724406394342,2.1582375184229425,6.922525057966209,3.8293643839493554,27.0,770.8125,-506.5
621.0,N,-6.765808344872282,-4.615157359030429,-4.922202569320061,-6.811210413148516,-1.8471918867709973,-4.790261410085409,-2.818153625050474,20.4375,767.5625,-515.25
622.0,N,2.151776281491446,2.484388918068168,1.0155144745077027,1.6784607825614861,1.30040931202476,1.1449955730900292,0.13655752121172487,34.9375,743.6875,-547.875
623.0,N,1.9852575364154283,1.62540899950941,1.1031249748189185,2.579693380726112,1.4752674501094576,-0.47312720326713087,-0.2526753506591075,41.75,730.9375,-567.9375
624.0,N,0.15261692010105174,-1.910473827505978,-0.07271419298417067,-1.2063899639482294,-0.20936945381109415,1.3426615552825227,4.840561026619096,31.625,744.0625,-547.0
625.0,N,-1.4163421660466537,1.637658732529309,-0.5067300722810328,-0.1553337556079187,-1.0494580459838831,-0.3470881838895623,-4.366648911345894,33.5,750.25,-537.875
626.0,N,0.7749103174736295,-0.8310190884165718,0.15103250873211788,-0.3024587909867396,0.8717004591225991,-0.3179312350713253,0.11199323639940803,35.125,762.1875,-516.625
627.0,N,0.20966793882770662,0.2250095736568628,0.8896941865781435,1.3434735627396968,0.5982297791922426,1.207123558686268,3.4685085434309846,36.5,763.5,-515.5
628.0,N,0.30185277306699393,-0.025827089721726225,-0.23215816313898585,-1.373635972561058,-1.4274537293420904,-1.9423401881953855,-5.143219096561774,35.0,755.875,-526.125
629.0,N,-0.2605995154007114,-0.4700038773549686,-0.6041865818076406,1.3498746543022704,1.3862881561183016,0.801121977321363,4.04217931668768,30.625,754.3125,-527.5
630.0,N,-0.284771135954793,1.9618414346606434,1.7936717769464432,0.29553095148908576,0.5796499498994578,1.0613544291911068,-1.3950991794586194,32.3125,757.1875,-527.0
631.0,N,5.331226381275017,1.4679991928209046,0.9208370677223215,0.6952452126076455,0.3059363348414413,0.48441981016650015,1.7995584634148787,36.9375,752.8125,-533.6875
632.0,N,-5.6402258699449215,-3.4097319282861136,-3.0699533233206058,-1.4272667212927925,-1.1409623628709464,-1.4365389010532885,-1.7669670838807479,33.3125,747.4375,-543.125
633.0,N,-0.4804272610879357,1.3802364266660878,0.8145946478862939,-0.9881229689935453,-0.9733075519760507,-0.14072956465724543,-2.196325667855166,23.875,747.0625,-543.375
634.0,N,1.24885376570268,-1.8563456512337653,-0.5305884024669592,-0.061437855054209935,-0.08275396896020931,-1.0584471120938759,1.7075219408932325,19.6875,749.125,-541.0625
635.0,N,-1.7443309041455468,0.3778770294013145,0.3916051316942509,1.3011237363666173,0.9550462240703871,1.6746214488789168,-0.20990402963609267,22.625,751.0,-536.4375
636.0,N,1.9780104452126561,-0.24810747271172773,0.24352528064017587,-0.8341263802025319,-0.2440369873745999,-1.3287132973757871,-0.3908854757869003,18.5,746.6875,-544.375
637.0,N,3.761587973272929,5.888306614859159,2.3392578723254185,3.7295623379415512,3.3847243780857954,3.362187047151969,3.836685530491658,12.9375,746.0,-545.1875
638.0,N,-5.588382284392447,-6.843060335329644,-2.7546081811950103,-4.607169389079096,-5.023982946855389,-2.1682453281829983,-2.0055599038743206,11.9375,746.6875,-545.1875
639.0,N,2.2265288456070316,2.624472940004164,0.15663938137907235,2.1300135512371816,2.3158790517407652,-0.898100433186708,-1.1966466700578413,14.9375,747.0625,-545.0625
640.0,N,-1.0197775020995226,-1.4207936278322255,0.06144093893785981,-1.3337328311703462,-0.8154202313628705,0.21532845499238595,1.1309464546862082,16.25,747.4375,-545.625
641.0,N,-1.6232755428944903,-1.4376901786088874,-0.9772442048270227,-1.360339430881001,-1.7738758459947157,-0.5566982755219813,-0.9771891747874436,9.8125,747.6875,-543.5
642.0,N,1.6345780077561758,2.098038980109473,0.7049975081917318,1.2903847070224306,1.509627935011207,0.13274384993187682,-2.916515514462425,8.125,749.0,-543.1875
643.0,N,-0.5946514533947231,0.713410646953956,0.14977145416040327,0.3435802699760636,0.37879346807742464,0.10150103384515433,3.011708087662794,10.75,750.5,-537.5
644.0,N,-0.9458461705525378,-2.6251437192151883,0.3606289204701229,-0.43761692155667015,-0.2234499900684782,1.120273690947462,-0.313819782618325,13.125,751.1875,-539.0625
645.0,N,0.5876121569155716,2.2636705628605704,-0.39261979494655863,0.023271708374541504,-0.2163652389454096,-0.29489137965744205,-0.5696165915158631,6.75,748.75,-543.125
646.0,N,4.286040335270506,1.0373755889782346,2.914864129783967,2.0351189540098233,2.0035615485406506,3.310041823600163,3.208029548262758,3.1875,748.1875,-542.8125
647.0,N,-4.382508019326012,-2.328840355236293,-4.149170683669267,-2.3494340815375074,-2.398278575708682,-4.9899434511723015,-4.927387413672619,7.6875,750.25,-539.5625
648.0,N,1.3504200947216085,0.01827887345246421,1.3745029887897047,0.25752918392663376,-0.18461316921347753,1.0722061028114351,3.249016785885016,15.25,751.25,-536.25
649.0,N,-0.018039893886562595,0.44754907915117703,0.1270614855049555,1.1222254386867871,1.1702008284703516,0.5732486704511939,-1.0941405072733674,15.125,747.9375,-542.6875
650.0,N,-1.055151012487092,-1.4418387463087883,-0.5436811340881944,-1.8495831767673228,-1.3876296274159854,-1.5262681643432963,-2.2732076874356024,8.375,743.75,-550.625
651.0,N,1.6404028027080926,2.092665976235268,0.7440522898288005,1.2327963845792278,0.8795951099004101,1.4454315169841583,2.210922079194045,0.625,741.8125,-553.3125
652.0,N,-0.04542908952087089,-0.993789925032469,-1.3390269522444793,-0.6413815724510951,0.5156560121736186,-0.803648675103745,0.2252877332493304,2.5625,743.625,-551.375
653.0,N,-0.4379467509704947,1.8551412458634842,1.9347922033993155,1.9083210005130136,-0.23585769692820668,0.7794337512408565,-0.9340205376098019,12.875,742.75,-550.1875
654.0,N,-2.313939428535854,-3.0178082941504325,-2.0414648122977592,-2.281765322009663,-0.7143630120461292,-0.030390908446696927,0.8582371010657764,15.6875,741.5625,-553.0625
655.0,N,1.915814811194891,1.6042178114233765,0.2767583144770691,0.6046594616038341,0.3193522475754645,-1.344332151592113,-2.2957328725074526,5.6875,738.875,-555.75
656.0,N,1.2610015802374184,1.2397920149615949,1.0382876008142208,1.6210113795175325,0.33576361487835643,1.9634563906476266,4.208136504691022,1.5625,739.25,-557.0
657.0,N,-0.28437269621737243,0.12094696815985549,0.5598652788512184,-1.0256179934694898,0.3748757579436651,-0.36722253481838574,-3.164813485055454,11.5625,744.0,-549.625
658.0,N,-1.8799638541501622,-1.0764446071260985,-1.2132394887884665,-0.7240923853795973,-0.609804771503842,-0.8949687760034551,2.4677814562330775,15.1875,747.0,-545.875
659.0,N,1.4158353068851297,0.8308215067335634,0.9448129096990192,-0.05255730381936621,-0.5562013589421133,0.5112496588755955,-4.217632476256715,14.8125,746.0625,-547.125
660.0,N,-0.3147240289642333,-1.3210900892765913,-0.475678308439116,0.9521661216080342,1.0122250286295678,-0.5597574282395817,4.638939089643299,6.5,739.75,-557.0625
661.0,N,2.3214337377459735,2.3980755535578475,-0.40636914662461343,0.07516158700252867,0.17186375296302617,1.595648603069756,-0.861705704310136,4.9375,741.3125,-553.8125
662.0,N,-3.4908019775401327,-3.640925628915762,-0.41152552291696626,-1.504287490989831,-1.0881267214716899,-3.4056418498234597,-1.0818183338082812,10.375,744.5,-549.4375
663.0,N,3.3586603636856185,5.104122486160246,2.1774184558047525,3.507640781761009,2.6281865940770266,3.8879726126846488,1.5111981582510918,10.3125,745.5625,-545.75
664.0,N,-4.045099624633511,-6.288083902536811,-3.4253694872230422,-5.806384898378554,-4.373568024696869,-3.244119719758142,-2.298542621622124,11.9375,742.9375,-549.8125
665.0,N,1.7431137082839536,4.12924727873275,2.709975049962427,4.158753547148754,3.0489932270654454,1.9752920144674944,-0.1682230719568572,8.8125,740.125,-555.1875
666.0,N,0.5300499889401658,0.21459953957365713,0.7580506917299935,0.6180424304579378,0.2806445244471835,-0.15423114366406065,0.8851761276871203,4.9375,740.875,-556.6875
667.0,N,-0.30361878249732627,-1.6743775893102932,-2.992470220944953,-2.0369500272067125,-1.2848262315290873,-0.45414566453180144,2.375363252291195,2.8125,741.3125,-554.0625
668.0,N,-0.7718671284293064,-1.161936536308736,1.374207278416679,0.16012902480296748,0.2856349312413621,0.4691815830226973,-2.515031767947896,3.75,741.75,-553.125
669.0,N,-0.5272112287505625,0.032900489086604465,-1.0586988793067478,-0.7448855794727297,-0.3652596735999356,-1.4687796250054161,-2.4267765376063664,5.9375,739.25,-556.6875
670.0,N,5.906672398627264,6.378481886926489,4.19205153425435,3.8678217512413804,3.1085789453857378,2.7253846883983477,5.044798249403815,7.375,738.875,-557.625
671.0,N,-6.032189750035606,-5.53219635573731,-3.965559559281849,-3.221094145180276,-2.5719856343258116,-1.7119387992071764,-2.332208882407975,9.6875,738.75,-557.25
672.0,N,3.0803725185489355,1.8223533584293907,2.2462634447064964,1.2295311830436881,0.6020381538879636,0.8922690249030929,0.8810236850320894,7.0,738.4375,-558.6875
673.0,N,-2.339183027422767,-3.648219046986761,-1.772763394223403,-1.9478744105993135,-2.096722414685404,-1.895973998867158,-4.14917435283346,3.9375,742.0625,-553.375
674.0,N,0.42150345496275815,3.6690785435080433,1.2863935037788392,2.1298164193085047,2.4746472454650066,2.130226193165044,4.693113562612766,1.0625,744.3125,-549.375
675.0,R,1.1771014528017887,-1.1081916363200612,-0.8734253070177397,-0.220945085485057,-0.6401520805550217,-0.258708915747563,1.3219682346518216,2.1875,746.375,-548.1875
676.0,R,-1.5093902741078515,0.1636910945061992,0.6260760553974689,-0.06547805020808209,0.7364470708432131,-1.9523204010966821,-2.6397920349718027,7.8125,748.8125,-543.0
677.0,R,1.0876209202348182,0.7463438517887432,0.29898907635150884,-0.7012356107448859,1.53001733757571,3.5816596399057445,1.3879461254574426,9.9375,752.125,-537.6875
678.0,R,-5.531390550375319,-4.932309494107502,-3.5947007856954953,-1.1379209459369444,-3.1727827549461414,-4.716348800711692,-4.709005573023299,12.5625,742.5,-552.625
679.0,R,6.087018598890277,4.593453064040531,3.108541585712317,1.2817976829165993,-0.467178418888584,2.825017991593767,4.249676972570746,28.4375,751.625,-534.8125
680.0,R,-3.334631371185457,-2.8086641399998893,-1.271278120579544,-1.8709787750780908,0.937011319409294,-1.654647614929972,-3.4318346554490406,27.4375,742.5625,-553.75
681.0,R,5.7674554404051745,4.101526351862271,3.1104443585601915,3.5479569644168683,-1.9142334635118,2.0525014031100217,4.584012284502122,43.9375,771.5625,-506.5625
682.0,R,-5.00055637797215,-3.7695631535346803,-3.3517864540479545,-2.7603411646144633,2.599161956509426,-3.0488766940621854,-4.4558088171686565,52.1875,746.375,-541.8125
683.0,R,-1.6279208852956217,-1.9759903664216982,-1.3869260250034985,-0.9926343607532754,-5.857587183237962,0.45618170329522945,1.6585311432321108,20.5,757.4375,-528.1875
684.0,R,4.75168590430142,4.921371539161222,4.810697121887675,3.874119094003927,8.209394308156844,4.687097446895486,3.443098376642305,15.5625,730.4375,-568.125
685.0,R,-1.6088622115099878,-1.3526810206659579,-3.3058650386940807,-2.6372541984419864,-4.836949942415286,-3.9422843422776443,-4.825150616668201,12.5,759.375,-528.25
686.0,R,-3.161094825792082,-1.4643254725549246,0.6698184550590147,0.5373720058112799,3.4651049028845593,1.6861446048078197,2.7794075916538157,16.75,748.5625,-542.0625
687.0,R,2.448899749838368,0.4106603257539664,-0.7481251196531957,-0.8732259556746544,-3.6079214567796014,-1.2108971587476232,-2.431802683335988,20.375,761.3125,-521.8125
688.0,R,-0.3513183595151722,0.9653960723365199,1.5178564030170592,1.2519639057503527,3.007553904809487,0.7182410621645049,4.362336089499757,12.4375,748.1875,-540.875
689.0,R,2.646803310395274,0.796694307984968,0.10299092417152793,2.05513097457009,-1.5089810802877242,2.7257049758458587,-1.3714095707506708,23.0625,752.3125,-537.0625
690.0,R,-3.578375837623925,-1.6044259054148182,-0.858596026978071,-3.3029670691309265,0.9793667753255595,-3.3159167134337504,-0.850494731252522,40.5625,738.375,-553.4375
691.0,R,-2.5064037485737556,-5.089891445760098,-3.854092728185027,-2.8347767938799406,-8.186661527527377,-2.550919151788543,-3.264111462126491,36.0,761.625,-519.4375
692.0,R,4.078052935384675,6.812319872157094,4.959158914109174,4.12325018112572,10.842833794698706,3.523424229962072,3.300014287754513,33.4375,764.1875,-522.8125
693.0,R,3.3532252727342176,3.300015921102201,0.2620727265178384,2.026083169128574,-6.688889745298244,1.2054536696156637,1.9604834626878165,26.9375,774.0,-503.0
694.0,R,-5.354273778346509,-7.246506126981301,-2.209601020424329,-3.5460270825931652,4.228239192183061,-3.5077863348321907,-3.8483962797444597,21.5625,756.3125,-531.75
695.0,R,-1.679092916062817,2.297640467831911,-2.9946351547851626,-2.1328951754973278,-8.225354828153232,-0.052577644938011064,0.371118058391506,44.5,748.375,-540.5625
696.0,R,8.58382519823842,2.491683277068106,8.859982127899645,7.201066824011731,11.680332202243129,3.3798216153628697,2.112140540215129,44.25,745.75,-545.0
697.0,R,-2.997210196787327,-1.1135058385000782,-5.018137483807866,-3.429557332969821,-8.495534068626343,-2.459242908940532,-2.472328868350364,24.125,773.0625,-502.4375
698.0,R,-9.4318168828188,-6.6899927683058324,-6.267662984205086,-6.111932751219206,1.2204805668619054,-5.467699452197585,-2.802783283185414,67.875,759.625,-522.6875
699.0,R,21.840612531357113,19.669631934223247,17.71886308664504,17.19995732422671,9.637154960040464,15.708466742592249,9.910223970071069,83.125,750.875,-524.75
700.0,R,-14.986098617263812,-15.855743367067577,-11.037349958493753,-12.54233434154044,-5.211683395376636,-10.543188822336242,-4.871221047994548,91.4375,745.25,-540.0625
701.0,R,-3.1008730501812334,-2.261385066830515,-4.453119961802835,-1.8970412154209442,-8.054969870575901,-1.7293664994293625,-4.8452674574000865,55.9375,775.75,-496.4375
702.0,R,7.025669585509811,6.185656777703223,6.39435822520894,4.227488546991463,9.849970859084253,3.2380968504428216,7.063886168953917,31.9375,745.6875,-550.6875
703.0,R,-4.706374727239933,-1.5014653864210905,-1.73397815434756,-0.5188954544908938,-5.203440812086893,1.2627713380488907,-1.365544042988085,38.75,787.5625,-478.3125
704.0,R,8.38539718364978,5.973033033102536,2.3497647768602072,2.139969756747278,7.229794024963574,-1.2872889661195555,-0.8224961798468007,45.25,762.1875,-527.3125
705.0,R,-6.387002232886027,-6.045642340174487,-1.4976725170981757,-0.678050283668947,-5.356345946346551,2.9245008137542827,3.5644081928674822,51.0,792.0,-477.3125
706.0,R,-2.106124714822478,-0.10030785327255717,-3.3281328261016974,-5.088656127908036,0.20823843997471658,-6.215628626124559,-7.564965753694606,43.875,768.4375,-513.125
707.0,R,1.9604380211280796,1.3137663344290917,3.991450546952927,5.421909898028829,2.935795881861237,4.8710556036668216,4.749138290455488,51.8125,773.4375,-499.5625
708.0,R,1.9645187703874278,1.925202412432177,-0.45324559110510015,-1.2010184845123768,0.15364735746880978,-0.587044887263126,0.4983821282690515,33.5625,769.0625,-515.3125
709.0,R,-4.221336864298724,-4.666691369721723,-0.3967304418547676,-1.0574292682728619,-1.0189861301278542,-0.46508620268173584,-1.2514805597097396,47.5625,762.8125,-515.75
710.0,R,2.109573502539127,2.380156368885597,-2.3470597102770414,-0.4616887382971736,-4.6886731584906505,-1.2686174238157173,-1.2980613580409126,31.75,763.5625,-517.9375
711.0,R,-0.9515888156422816,-2.324483030308396,1.9903260051291645,0.6136971107249044,4.479718508827598,-0.7814263503092168,-0.06354101372588912,25.875,755.4375,-531.25
712.0,R,5.607376193749587,5.460513321299777,0.7099431951610485,1.368323953416595,-4.1013076793339645,2.1199903703420615,3.3926868057659805,57.25,750.125,-535.4375
713.0,R,-7.117558699723225,-5.9185312954089495,-2.002890427831884,-2.872919932341674,2.658948304734091,-2.8925001924593805,-5.82965647215536,68.0625,733.5,-560.5
714.0,R,3.6728888302407854,3.1306203236620513,0.7856373437391699,1.8954031924070258,-4.651199055770732,3.5169173865131436,5.184682207114714,39.25,767.375,-510.375
715.0,R,-4.039159273376482,-3.9188469514629847,-2.1619605652692644,-3.4127837609231677,5.066012404125979,-5.213163731348928,-6.510646900165779,39.3125,763.9375,-517.75
716.0,R,2.598372354709178,2.24751602286799,1.4645523930695785,2.893831164421248,-3.293253314278839,3.9988565053192224,5.245065950674556,43.625,752.75,-533.1875
717.0,R,2.2825891996573335,2.2997234244185725,1.8653501323218924,-0.7960094610011275,4.2982837809310475,-1.1600593796098246,-2.8101592843305605,28.1875,742.375,-548.875
718.0,R,1.4680110917294455,0.7566992160383442,2.895835829910265,5.66508838251674,2.6919153816322767,6.14972404517557,7.8535525093591305,25.75,753.875,-534.625
719.0,R,-4.499305112708295,-3.177637042384357,-6.184421804870898,-7.853138836066148,-5.520085430409567,-8.080714683086649,-7.275775191983571,56.1875,748.5625,-537.9375
720.0,R,2.80034810312156,3.0959389143443077,4.2929050433212455,5.647110128109598,4.331740703934422,4.694615719662905,2.895449059117566,43.0,773.8125,-504.0
