timestamp,label,F3,F4,C3,Cz,C4,P3,P4,accX,accY,accZ
0.0,N,8840.93251875123,8901.215575896467,8031.820092580112,7568.519630474394,7798.356917468585,8839.839831916082,6604.397614445735,18.4375,808.8125,-459.5625
1.0,N,-839.2820687938286,-857.5820283921207,-672.1060448755583,-635.0454402414902,-651.8559491420316,-837.5351820809732,-552.4447906669916,16.0,809.625,-456.6875
2.0,N,-562.3543827543508,-568.6960043262544,-496.9543398894267,-464.72841049048344,-482.4058034204192,-564.2880801808183,-405.34887350863016,14.1875,811.625,-455.25
3.0,N,100.66307374292883,103.22295241147603,86.14175543557407,77.13184293640613,82.49297457736006,102.41543710144275,65.23983284991789,16.9375,811.625,-452.875
4.0,N,3.0970982711573822,2.280203230234384,0.8310611874992492,3.317542598542581,2.6615474010179176,2.1235730875401644,3.294120984624811,14.4375,806.625,-462.625
5.0,N,-2.42273952081312,-0.9577539127358456,0.030344400823612432,-0.7278993332113561,-1.0905835069237535,-0.5824165303024976,1.2160162774499164,12.875,808.0625,-459.0
6.0,N,-0.007042636578021188,0.4225683432232049,-1.4169967682038431,-0.9806796215220102,-0.857934161239491,-0.41520796288429845,0.9823242782733614,11.625,808.875,-460.3125
7.0,N,1.2884259266862754,-0.10864100743883773,2.616991717766014,1.1698255943339404,1.7014949752700623,0.9567532727112152,-2.985723973405305,12.4375,810.4375,-455.375
8.0,N,-1.571950608955495,-1.0293895800724515,-2.133200959286378,-0.7477599462942977,-2.034983570368029,-2.1272776160128113,-0.7034570762808384,15.9375,812.0,-452.5625
9.0,N,4.316183279497066,3.404462804820256,1.5377659886356219,1.18484942172995,2.0696145449158343,2.208007780427596,1.0812685571352585,16.5625,813.1875,-450.875
10.0,R,-2.8442369792873587,-1.841944973402157,-0.4470626706183135,-1.3899906066673413,0.20262658807912112,-1.627455438885046,1.5133153712750043,16.625,808.625,-457.875
11.0,R,-2.9255539220380373,-2.4804612889904902,-3.2568704353770745,-2.421372741221982,-5.6982669500124565,-0.31669915269369553,-5.608463279740971,16.25,809.0625,-460.3125
12.0,N,2.533634322692297,0.8643683638034003,4.022198857120725,2.345924780677532,5.008504622283929,0.8863008262429342,3.3040853766030116,21.5,805.125,-465.25
13.0,N,0.019557831783233042,0.26281854265383253,-3.3028491189382327,-0.24307823842839957,-1.6266532422876576,-1.0303764158155846,0.9640022919998308,23.5625,799.375,-474.125
14.0,L,0.3485119104264247,1.6155662022808654,2.3598747030953446,1.4278937704592642,1.8453391586682522,0.7195186654936808,1.810083279917853,13.3125,802.3125,-470.125
15.0,L,-2.0079512462514364,-2.364272193455724,-1.3102900074014632,-2.5140145193319503,-2.3380280303326435,-0.24198597170106007,-4.244996238031506,18.75,806.8125,-463.0
16.0,L,1.0207209858309534,1.4504120765796162,-0.7056411727636097,2.0744041553492627,0.930396091335102,0.5968333500075118,5.64419060473455,10.4375,805.5,-464.625
17.0,N,0.8517560465461029,0.9208303948917458,2.312461976750058,-0.000768759350799428,1.3624420248913767,-0.7939091013018386,-4.7681136786409155,10.5625,794.0,-479.375
18.0,N,-0.4477527949090502,-2.010589541053776,-1.35401738003045,-1.5932107232839259,-1.8572648522860904,0.12751686184559494,0.5358732071702804,6.9375,790.5,-488.625
19.0,N,1.9456162781435238,3.134719552895006,2.040574050215491,2.908006245846918,2.0905150507791506,1.5741926419998609,3.353080310304745,7.625,787.4375,-489.75
20.0,R,-6.387471849568967,-7.554684671517392,-4.294636843460767,-5.164044336610506,-5.157430992463836,-3.028970610188154,-5.379580463312943,2.0,785.375,-492.5
21.0,R,8.349527388521393,9.749132947814648,4.38565006996116,6.6064912943797545,7.908261371007484,2.9502857966373512,5.506994773322616,4.125,780.75,-501.3125
22.0,R,-0.8199414644944595,-2.498889628883223,1.1023243055212588,-0.9544721562641098,-2.9877973586339257,1.5244354275980385,-2.019360502177383,-0.4375,773.5625,-503.75
23.0,R,-2.6770816985948827,-0.8815568474389838,-2.016111185791685,-1.8119409893883138,-0.5654430204615114,-2.2408258311444382,-0.6166724150862358,5.0,776.9375,-500.625
24.0,R,-0.3633932034215045,-0.4510437046562274,-1.533293565467506,-1.0087613685434578,-0.21649570912521562,-0.8185845081354355,-0.030609245883706535,8.625,788.375,-486.75
25.0,R,0.05866116739598328,-0.19414806777637092,0.17339805402083766,0.8539254624684982,0.3749359784088026,1.0506146967947378,-0.44076977772045145,9.4375,785.625,-492.8125
26.0,R,-0.5271267513603568,-0.7630093135741,-0.13690383418078456,-1.7603362091278114,-2.3303600155870563,-0.46989624179966427,1.0970255161199616,8.1875,776.375,-501.3125
27.0,R,-0.5678806111917181,0.08577605102106077,-0.46072529179112304,1.0848462462023492,1.1825239193579387,-2.289137346700399,-3.1913496526456684,3.6875,782.0,-497.125
28.0,N,0.4032919167432076,-0.8655948615310326,-0.0010087417668684395,-0.7970651811792187,-0.888281215074559,2.1135053696828416,4.749528798406378,6.8125,777.0625,-500.0625
29.0,N,0.8747136919535206,1.5638983294436049,1.2896532189675414,1.2708181849653608,2.2652404508328363,-1.2399082822860783,-0.6486723104207894,0.8125,782.6875,-497.625
30.0,N,-0.6109207454176492,-0.319340347647541,-0.9420799141547316,-0.41041036477275816,-1.1625256221767846,1.1743359278814323,-0.07213710123358578,0.375,785.3125,-493.625
31.0,N,-0.9204675754570262,-1.9214495728453607,-0.5353981719210892,-1.0835709512479714,-1.0099545366481477,-0.4430732379865073,-3.4649959576362095,0.5625,788.375,-489.1875
32.0,N,1.759149637022049,2.861958203988526,3.118642594644933,3.013890946921,1.9239200271287988,1.102205894369941,1.3491532650950493,3.8125,785.5625,-492.375
33.0,L,0.09749822095033574,-0.34063056823046306,-1.6578280047652048,-2.04619906682864,-1.2536874566747946,-0.41338088755529884,2.9768730580396023,10.0625,782.6875,-494.6875
34.0,L,-2.7067211114772163,-2.3483896181407102,-3.5974759608454265,-2.6364670870071514,-0.8901600915906835,-2.3744877485846336,-5.560619949788832,11.3125,784.75,-493.5
35.0,L,5.07863363022747,3.3962228137189285,6.040098963060236,3.866928960665501,2.1488143835606537,3.085655830994923,4.5802644325361515,17.6875,794.5625,-477.6875
36.0,L,-5.336812540567895,-3.4887783514791177,-4.25591368261355,-2.2180179582208353,-2.6533843814680704,-2.385567275571437,-2.1882590443115943,-0.25,782.375,-494.5625
37.0,L,4.1048771965360045,3.030392325943269,2.7771401644799005,2.02442572866196,4.585056800058795,2.491553307876631,-0.9283224302936726,1.875,775.25,-505.5625
38.0,L,-4.544857849626202,-4.290193730600521,-1.7422450517351253,-3.17309575073024,-6.019741800157668,-3.24804678371182,0.407900411586993,5.9375,791.75,-485.125
39.0,L,2.0021292864423623,2.4645373545724274,-0.5052226094289574,2.7285766713773176,3.5487950072572803,3.4014728695546257,3.6315776262200283,15.0,807.4375,-459.875
40.0,N,-0.8447275118086782,-1.2814438138124433,0.2528012655493931,-1.0937506615478019,-1.365620460022035,-3.0192677285963936,-6.62618502753671,13.8125,777.875,-502.625
41.0,N,3.0869856137877054,2.8581808835113853,0.7333386481403149,0.26632075442827624,1.4134581986488781,1.4990361479203007,5.388545144636837,14.3125,780.625,-497.8125
42.0,N,-3.5749737528567964,-3.5935998372125444,-1.3180166912849343,-0.9908099401761451,-2.2732296629601616,-0.15670163271161186,-1.955718379126677,7.4375,803.875,-467.25
43.0,N,2.080964433972409,2.505334654538365,4.437258710207657,1.1180509173488133,0.780255035046267,-0.24732008385903795,-0.7688335617856592,15.3125,797.875,-476.6875
44.0,N,-0.09252909516569946,-0.42911190232629487,-15.754776232836372,0.11649371220697503,1.0687010949871518,0.47647360023999275,0.5580683855920465,10.1875,787.625,-488.25
45.0,N,-0.7069798044025619,-0.1303002636197118,18.261385578782697,0.9352309618033486,0.24993051969487307,0.5761657078204492,4.67881592120778,6.8125,782.875,-496.3125
46.0,R,1.6671080789653114,1.1497181567048687,-4.699882728402485,0.05216958373309853,0.3823305360399958,0.8962915215649311,-4.574335067812141,10.3125,782.625,-496.8125
47.0,R,-2.146251156356794,-2.516417907017598,-2.6787399194313326,-2.9775940010533835,-2.6918773734211143,-1.7132735352427548,0.17835990981990824,16.3125,787.4375,-489.6875
48.0,R,3.217211160519696,4.985954342253754,0.8685565006188003,3.804558822187103,4.210037831610156,-0.1739132542838688,0.10625032997448239,18.0,795.25,-479.625
49.0,R,-0.7657139734524672,-2.9917117012502223,1.9113577543585378,-0.7897779289726313,-2.514817554319117,-0.6158877969152277,-1.2113901339650615,11.3125,789.4375,-487.9375
50.0,R,-0.910220156002901,0.18904661196394124,-1.8769488805104424,-1.4410726048593214,-0.9128855442185091,-0.3168617638803203,1.9318690531233544,7.3125,785.5625,-492.6875
51.0,R,0.09073767602902354,-2.427253609292275,0.8468046006221378,-0.11972070351804205,2.697000639049761,1.3732070358290303,-2.110184295616721,7.625,779.5625,-497.6875
52.0,R,0.7933251700980499,1.9711864958959877,1.25997071075096,1.9749236893702573,-4.123339566835713,0.8670115059166538,1.8438820583620112,14.375,772.0625,-505.0
53.0,R,-1.613908152792287,0.31119385566494795,-2.368535375570724,-1.3736541318799314,4.705592397834444,-0.5088993245526717,2.0843923504483954,13.0,778.625,-499.25
54.0,R,0.0018185030476316796,0.5627270945253651,1.7634877059027432,0.381466172264164,-1.6888969950054602,0.08231124781531304,0.8956318660857687,14.9375,779.125,-497.625
55.0,R,1.4031499510460874,-1.1596772104098911,0.509693719917837,0.377993780684852,-1.8035921865012712,0.641504064563439,-3.237099839604778,10.6875,780.125,-497.0625
56.0,N,-1.0030785858252693,0.08209857633983779,-2.172454320787423,-1.656771633415081,1.0495556930979137,-2.0694824722258938,-1.7543305132287803,23.25,779.25,-498.75
57.0,N,0.43908884046678326,1.2183776049139767,1.5392092929206542,1.7699469902119702,0.40614420314063043,0.7238200944597829,2.262524464636623,14.125,780.875,-496.5
58.0,N,-0.9645463868986854,-1.4991093336051715,-1.3484822084806276,-1.7130078623711076,0.5064404252061524,0.23454963590674197,0.4897794115975048,12.75,782.625,-497.1875
59.0,N,1.1021451341864406,1.062026304453864,1.5189258760989446,2.0077315169173136,-1.1079946229450317,0.8123692250416609,-1.1675471985053245,11.9375,781.875,-495.0625
60.0,N,-0.21021217413046292,-0.4610090750405016,-1.1885963539021553,-0.9420487914758121,0.34729183733677316,-0.6782091799944032,1.7714543121859496,13.5625,780.4375,-496.3125
61.0,N,-0.5893446939138222,0.5906932251588239,-0.28207061195231403,0.13926003636582754,0.5004667762160177,0.09485625785150115,-3.062036851629301,13.375,777.5625,-500.875
62.0,R,0.879022245084647,-1.0681329811400833,0.9361894804533382,-0.6840890235278418,-0.45877811686548114,-0.117750887533738,1.0608534846294544,10.8125,783.625,-493.1875
63.0,R,-0.07575267222573825,0.7521478151456003,0.2342958066446149,1.6437358607260115,0.6777289702769979,-0.003475385319159841,4.670718604552413,7.8125,785.0,-491.9375
64.0,R,1.8743951053228758,1.3508883750031633,2.5300798925101664,1.3468482854822732,0.6379185927268696,2.101727354970234,-4.7281821107551245,-9.75,782.625,-495.8125
65.0,R,-18.686914444706265,-7.580710818091246,-16.020295628248874,-11.682416199401686,-6.332353367492866,-9.074286293047956,-3.6363897568130925,9.9375,775.875,-504.5
66.0,R,25.05471809885568,6.883452275413736,18.075080966631337,10.205193162884978,6.5025138768132535,6.945281269044457,4.50474094269791,25.0625,781.8125,-495.0
67.0,R,-8.809955659827962,-1.8124412262957248,-6.052547788193289,-0.3782030869789578,-1.196147246323877,0.21119427661924398,-0.5976007871830613,32.625,778.6875,-496.375
68.0,R,-3.5583589032396628,-2.3706336684211333,-1.7073987158949253,-1.9258237693715556,-2.2474119514146107,-2.1760706923603266,-0.7722334270394658,15.9375,776.5,-500.9375
69.0,R,4.5558406473552875,2.5904537551478253,1.6197689847055354,0.1768418126027982,2.7464435664974696,1.6163898725835844,1.5832845349997775,23.9375,781.0625,-494.8125
70.0,R,-2.858121825676421,-1.5032955030116244,-1.3957658353829674,-0.5968934508806037,-3.4650209013707824,-0.9390922348654864,-3.6414065417593338,28.125,779.625,-497.125
71.0,R,9.020963519678135,5.475468868035264,6.316124671525637,4.612637680466085,6.497544055370066,6.075545282129509,1.5039199497935516,16.75,789.875,-484.125
72.0,R,-9.018949374766285,-4.394348397601379,-4.962781653080041,-3.8558158898715167,-3.5127941887914824,-5.663501495270439,1.839527744901262,16.3125,796.5,-479.0625
73.0,R,1.0887455519782523,-0.10117316188952588,0.7868095257074151,0.4748276841698487,-2.6542993140714155,0.18379221512484525,-0.02286224140644913,22.5,800.4375,-468.1875
74.0,R,3.3713883894230268,3.3143261377415323,0.9156431597952245,0.746093470343927,4.734293161290742,1.7997168186717831,0.16921619276466435,16.1875,786.0625,-492.125
75.0,R,-2.706417540926165,-1.9389809085355882,0.7653963318858836,0.024746909674181326,-1.6834610937471388,-2.0388976936496097,-2.0537397183954496,14.0625,789.0625,-487.4375
76.0,R,2.6324776109721975,-0.7176664009171881,-1.808291881842891,-0.19179049764282968,-1.7821098502576245,-0.18316417193782944,1.9407955100840237,13.8125,798.0,-476.375
77.0,N,-2.9956592743341304,1.277582873784414,0.568480107526503,0.07752727485817565,1.8519280996310379,0.38177507653198384,-1.2980142466001965,22.875,787.875,-487.5
78.0,N,-0.08206486795541286,-1.1566343180390013,0.3534810566327486,-0.2995419626934282,0.10102468218354851,1.3675593812313396,1.067398328838874,20.6875,775.5625,-501.5625
79.0,N,0.44861375816818977,-0.13555185097264325,-1.01939871205609,-0.19890632325577234,-2.4454940755529555,-1.083357967707626,-0.38511185709268286,11.9375,775.4375,-502.875
80.0,N,3.352157070985652,-0.008722705776109365,0.31522220407517076,0.15300393963185518,1.8314195947614316,0.4044537909652195,0.41650543722856925,14.6875,780.875,-497.9375
81.0,N,-6.8138318800563855,-0.8987904333359397,-1.4178588309975166,-1.3066489770470224,-0.8353827639739249,-0.5116141831052152,-1.610252234728929,13.5,783.9375,-493.875
82.0,N,4.9735938547265235,1.8942503948263911,1.457907283345624,1.8064644561278265,0.792190006037557,-0.48726715467847953,3.233139529120511,13.4375,785.125,-492.3125
83.0,N,-2.6329250915532376,-2.299478159781548,-0.32736088655530726,-1.1058916104236358,-0.5981864529118086,1.1398989514353592,-2.562275822014746,15.5,786.4375,-491.5
84.0,N,0.7262044670728233,0.29835223213390644,-0.04167399226523344,-0.5587513177385722,-0.8768425442022683,-0.7691187013486805,-2.0521483245622942,15.25,785.0625,-492.625
85.0,N,1.705858449453432,1.320091451296429,0.3109431376165186,0.7248797800450263,0.7258336082180047,0.0849821623301464,3.7769365339504155,17.1875,787.3125,-490.125
86.0,R,-0.31638985740616365,-0.12568277894247581,-0.10354536654220965,0.9869558706614332,1.67268208934025,1.1598454165015724,0.8304652322458904,17.75,786.875,-488.625
87.0,R,-0.07120703424421936,-0.001727219950540757,0.07635308975537748,-2.2390242526494273,-2.2980096638795904,-0.42754288282138064,-2.320347013883835,19.4375,786.375,-490.5
88.0,R,0.006855823678437332,1.3196033763323043,0.40706232161185096,2.629759171697451,3.4336339395977333,-0.9331699368277784,-0.877844325688513,27.4375,784.125,-492.75
89.0,R,3.0147507951943524,0.7351594012342885,2.0778948261576606,1.030657377453967,-0.9303760944017522,4.130192774087033,1.3964757856956138,23.875,782.75,-494.1875
90.0,R,-6.182677797540065,-2.827939107219733,-3.7711992427680423,-3.0252349280743873,-3.168962205652935,-5.462497352628736,0.6141385400286911,20.25,777.125,-501.0
91.0,R,2.525428931258304,2.7035503453574825,1.8369955538599447,1.5602119236497396,4.712252054417922,1.8032920298027588,4.079960245748071,25.875,778.125,-498.125
92.0,R,-0.9445058414345806,-2.419563016579358,-1.180137564212371,-0.28901273600436095,-4.930915786920187,1.4454738530098856,-6.504440615336843,30.8125,785.75,-490.5625
93.0,R,2.7151961889370893,1.2103576060735342,1.9015147960811805,-0.8417532263952903,2.177921812437039,-1.7523401703583665,2.0446131888257097,30.3125,781.625,-493.125
94.0,R,-1.934082292697762,0.9365322285826394,-0.4167747561635072,1.737452934432955,1.7958952923689224,1.5754680776960572,3.1677062303926777,25.6875,783.25,-493.0
95.0,R,-0.5809052550115947,-4.018596814634859,-3.3405690586119325,-3.394345094356169,-5.80785871929237,-4.300288176991267,-7.480079880942963,27.3125,786.0,-490.25
96.0,N,1.920560789136842,3.2477715162528575,4.8528101111110375,2.8492035508098423,5.168753276399282,4.93374536640927,5.0880865955737775,34.25,778.5625,-498.0
97.0,N,3.786203099181339,5.389487136646,1.0016552800615164,3.1116924282369056,3.8394619368817655,0.19945377267040953,3.863271045852436,36.8125,772.875,-504.5
98.0,N,-5.609889228304774,-6.974815752507483,-4.037310569587586,-4.533451197448896,-6.411410020800214,-3.4500946745662326,-6.985087188533103,31.5625,776.75,-499.9375
99.0,N,-2.8565055671910002,-2.4739898801256213,-2.440003709070744,-2.190408431823809,-0.2759724505520826,0.43985942095699326,4.1760539165477235,26.6875,785.9375,-489.8125
100.0,N,1.4447494496963664,3.1601902966249,3.3191054089017835,3.077619112934639,1.0884559381473538,0.7791615884032762,-1.6386612765474429,33.0,790.3125,-483.4375
101.0,N,5.371321441662723,5.05870752828289,1.9845274927199035,2.0445893618316426,3.9969163963593632,0.8791031117445732,2.3100035357308784,31.4375,794.125,-480.625
102.0,N,-5.2793874664523095,-6.029295623350456,-3.0209759273436676,-3.0711176117566854,-4.295218963463456,-1.2332828877088737,-4.677318454607091,33.125,788.6875,-486.3125
103.0,N,1.8357000398932255,0.543051554695251,1.1023812813333356,0.16982808839344124,0.426499961715707,1.3782753740521423,3.5521755395302685,38.625,795.625,-479.0625
104.0,L,-2.0864834116447826,-1.2586651980249581,-2.05291856818669,-0.8095953962611786,-0.9797734583121221,-1.7249614921536587,-1.927662823900757,31.6875,786.625,-490.4375
105.0,L,1.7055165469512623,2.5545105220427566,2.0472549066851276,2.8334457398018564,2.255437220654709,0.34730396956962817,2.058943988916058,28.8125,781.9375,-495.625
106.0,L,-0.09952108361244794,-1.4930595187476543,-1.5714472483072277,-3.0770437925501737,-2.8858966819938754,0.6124470165428639,-5.700859290025368,22.3125,788.5625,-487.9375
107.0,L,3.5412721076010385,3.098939585898521,2.9887931335428806,4.144403438047555,4.249425246878711,0.9934965080333205,7.360502297240166,27.25,798.5,-473.25
108.0,L,-4.484389005283923,-2.741371577898688,-0.6724612446089286,-2.450259581544902,-2.8785085094734466,-0.16077985164858297,-2.622620032583796,4.0625,773.8125,-508.8125
109.0,L,2.3889382128562984,0.5608037029583834,-2.281987826746719,-0.03487484353108766,0.4899977598291723,-2.1891547695081317,-3.733422839177404,1.0625,773.25,-503.375
110.0,L,1.8080903108136503,1.5943471949128818,2.9149907885904565,1.410308162457907,1.5731739101142448,2.807322417167246,5.872017720576971,13.8125,779.5625,-500.5625
111.0,L,-4.336864642254008,-2.6189326492333493,-2.509650514129409,-1.5123233420717221,-2.7976638186505896,-2.1621860657415617,-1.2806258745567647,19.8125,793.25,-482.6875
112.0,L,4.6597360176712295,1.4220767834901835,1.9403618124795563,0.4858150866940091,2.203921558129327,0.5274402027582132,-5.148828638105334,20.6875,791.0625,-484.625
113.0,L,-4.203833448548492,-1.0943246970568088,-1.264208027125186,-0.1519857802092649,-0.6197021520201742,-0.06849348422586468,3.017387458076368,40.1875,789.5,-484.375
114.0,L,-0.5581817613679969,0.08757848293950753,-0.7719224720999427,-1.760851453394332,-1.0206275603904127,-1.2525736883428882,2.0483309925778994,36.8125,798.1875,-474.6875
115.0,L,-0.87884178092185,-2.1739679389787967,-1.4741543357177103,0.41955325001506183,-1.6773462415093494,-0.6096339350355438,-5.161691335885494,25.8125,802.75,-469.375
116.0,L,3.5663954981270716,4.376024558517392,3.896439099955731,1.3251186501917485,4.095881222699693,4.543309459452357,6.934063102304204,26.1875,795.6875,-477.625
117.0,L,0.6886605420173421,-1.7141294793637774,-1.497429564361955,0.9298410415862609,-1.8509669860603348,-4.213237421914149,-6.891057719285707,44.375,804.3125,-468.5
118.0,L,-2.4685391586102163,-0.2124651424123017,-0.061984116509264824,-1.3097371604384493,-0.4868077561422625,1.825590452553234,4.594664926266912,59.875,819.8125,-435.875
119.0,L,-1.2281920964793076,-1.042891868495054,-1.8543671964039055,-1.8563536150865554,1.297986457085803,-0.7528567710863424,0.4477505166769197,50.3125,824.25,-430.875
120.0,L,4.465963629435746,2.039005595050037,2.7188605970543587,3.021569394627339,0.5862603046947898,1.306338178452256,-2.4669764583234337,28.375,809.25,-456.125
121.0,L,-3.7476535278043936,-1.550748367428424,-0.9744503701532323,-2.1828684394289457,-2.0397089332600724,-1.815943137521391,-0.07727753345947166,20.125,800.3125,-472.0625
122.0,L,2.511424294852927,1.528376523517891,2.2701022560822604,2.83851513590777,2.0532968129258435,1.7214481054066848,2.6975078473713103,17.6875,807.4375,-463.0
123.0,L,-3.1608857888028306,-2.8744125314788174,-5.549363103800265,-3.2743709553879308,-3.5323356851348615,-1.8207808799101368,-4.958144923175771,17.4375,808.4375,-459.5625
124.0,R,1.0650576520070012,2.035909611931285,3.6847310946074696,1.0826619936832422,2.1875377105957834,0.9867960518160246,0.8527987770219534,10.9375,804.4375,-467.5625
125.0,R,0.2945954338242341,0.964729690229544,-0.37568423367432785,0.051897170192024195,0.6611158921482466,-1.0102804223714674,5.065107581305536,14.5,803.25,-471.625
126.0,R,-0.6290444469072898,-0.16198890755128015,0.32610681652868195,0.9555304644836381,0.9557937852548424,2.728267895956219,-1.1111403787308778,21.5625,809.0,-454.5
127.0,R,1.045015655218654,-1.081595038746925,0.8829936732171579,0.21827575992343307,-2.0310108318111473,-0.2968782644021394,-1.3885148479874652,20.25,818.9375,-444.125
128.0,R,1.1675414042817684,1.0585848273014098,0.7666614042573345,0.9027678400734116,2.5196422413750925,-0.43528414662137116,-0.8832036563925075,21.375,813.625,-450.8125
129.0,R,-2.6282184954209624,-2.1894246222126394,-2.825187192501511,-3.9165931953506825,-3.3351442555035726,-1.3253632599148772,-1.0292766921256316,22.1875,807.375,-460.375
130.0,R,3.3921147479665006,3.0364765935831746,1.9614963377668069,5.05312339022689,1.8504569969958546,2.7613597400205774,7.775152731664331,28.875,812.5625,-453.8125
131.0,R,-1.6628819869158022,-1.5695303972819823,-0.3628648729864666,-3.392029466395589,-0.5337751965301877,-3.8793314309724685,-8.44185119187453,30.5,813.0625,-449.625
132.0,R,1.3694628569636538,1.3314214143975216,0.484302202748069,2.2104727717110624,0.9796073006967033,3.7088317260249357,6.480611983252712,30.4375,807.5,-464.3125
133.0,R,-3.1011309112679792,-1.922454623144559,-3.009003233663249,-2.272397629300998,-1.085808708599482,-4.382569312380104,-6.041851268784321,24.0,809.875,-456.1875
134.0,R,0.4907008059133328,-1.2605998266976135,2.757659488820827,0.9208118542010664,-1.4052262049022393,3.854575421722472,2.482803511159116,19.75,822.5,-436.625
135.0,R,0.38733453585995176,1.6213707932807713,-1.4249445382550703,-1.0333389660488386,1.751539961479946,-1.08039230785557,-0.5981113685298886,22.3125,811.3125,-456.1875
136.0,R,0.9305314661428697,-1.0096126050299585,0.3703250258395778,1.3567716570803836,-1.1294182572872251,0.6580442128197859,0.8028788949996415,28.75,799.9375,-474.375
137.0,R,-3.678885744092382,-1.0468777262846307,-1.849565077482105,-2.8650840562243083,0.19116461492594816,-3.270638695108328,-5.321667030489147,34.5,810.9375,-452.0625
138.0,R,1.7225584528377003,-0.24744815926204047,2.0869854500706784,1.8968243681719306,-1.4798646342062647,2.4195227783760993,6.701384736597415,29.375,817.375,-442.4375
139.0,R,1.6320374180479802,3.716968864151379,0.4350256309444803,1.3775455932817304,3.3603490298532073,0.03318689185893083,-2.982446892335615,43.9375,794.25,-479.8125
140.0,R,0.2708042290290541,-1.5703886295850225,0.4594095756518011,-0.2873280538910451,-0.5787613301308936,0.7308462202154455,1.403408889355202,33.5,799.4375,-472.5
141.0,R,1.7138709364085671,1.512963385954982,-0.9192097101871561,-0.38210282090860664,-0.7960854179085757,-1.7177164323635075,-1.2830263726437605,20.0,816.375,-445.0
142.0,R,-1.6359278234426164,0.2854064570215714,1.3649033606437053,1.7080799867431147,2.779350036259724,3.327197298839291,2.3162385532345633,31.4375,813.0625,-449.1875
143.0,N,-1.798767939503658,-2.037431342337614,-3.2570495792348466,-3.470478091004085,-3.8100749770934472,-3.5545685007337835,-0.5249461817138062,41.375,811.375,-459.5625
144.0,N,0.6347006990888407,-0.5069811184481469,1.5729243126865566,0.8712999866334913,0.2680275117664328,0.40855460403157257,-1.4585630017656568,30.6875,813.25,-450.0625
145.0,N,1.7200636555470354,2.040107519685716,0.9352757701646772,1.5438079816443868,1.4816746714779356,1.8529350799943662,1.0596288898066364,22.5,804.25,-467.6875
146.0,N,-0.9435808979661613,-1.3299760772194535,-0.5531326473770278,-0.972335919037929,0.19033512731739297,-1.1924656517026582,-0.8012024163505631,28.75,802.0,-469.375
147.0,N,1.4144802595733665,1.212976727941633,0.9299342144159402,1.0004999216596688,-0.4246855872006574,0.45995989497673373,2.224423932719982,28.8125,794.125,-480.9375
148.0,N,-3.1727110807435257,-2.0859908336634123,-1.377387072048872,-1.1684926115034577,-0.8384209777129459,-0.4780658437104528,-2.546012234511794,24.5625,791.875,-485.0
149.0,N,1.720000233249834,0.9943568888152071,1.0401442399590606,0.15982890385703297,0.49481746630428813,1.2379182636172918,0.41067075573603007,31.25,792.1875,-485.375
150.0,N,2.7886287683204727,2.6986639807839063,0.7544813129069623,1.6644833989613266,1.439583539021851,-0.2182174588668908,0.21460881145338181,24.25,795.5625,-479.6875
151.0,N,-4.0222483781208656,-3.021079131940095,-1.481709628072202,-2.1583635746186336,-2.1835517772796718,-2.9934661941710647,1.0488204708182716,29.8125,796.375,-477.0
152.0,N,2.9809581366026405,1.440933928417599,0.861158424269117,1.6572498899305377,1.5491238165784926,3.788035220684183,-1.9642307466755147,26.625,792.3125,-484.375
153.0,N,-3.4576514552561837,-1.9993622132226532,-1.3568357185805717,-1.673642042049306,-1.4270997753235997,-3.6539612174085376,-1.9712312217799426,29.3125,788.625,-488.5
154.0,N,1.7252736018994566,1.6721892354728762,0.3833288924690521,1.268847243402127,0.8717092228392085,2.648639755750815,5.564093190896319,26.9375,789.875,-487.0
155.0,N,1.285392160769468,-0.32259646291402944,2.0420310886985273,-0.21192926044470187,0.564491757380375,-0.4353226552789306,-3.1071190474509436,29.5625,793.375,-483.0
156.0,N,-2.9593427911116454,-1.487615288053129,-3.811452718860122,-1.7177611632897083,-3.176462791758725,-1.6082278399112628,-1.1372794604893024,28.25,788.5625,-488.0
157.0,N,1.9862958998710498,2.0001288720361345,2.012860869489142,1.61757633839459,3.7243984986956487,1.3886125350498597,2.8796306148804325,27.5,787.0625,-489.625
158.0,N,-2.2888372361132534,-1.3958551540677822,-0.8917586888973958,-1.1238369197869433,-1.8763079876394837,-1.2376534425857884,-2.9440257137024797,24.8125,790.0625,-486.4375
159.0,N,2.242215242086911,0.8222616421502214,1.475764744208433,1.6250078137133586,1.2189215254562342,0.6050122873430184,1.246821783457678,28.6875,792.625,-482.8125
160.0,N,-0.45734939123513607,-0.6493981810913187,-0.6653351711538086,-1.3394236027453703,-1.822465307340813,-0.8107835468653167,1.111032633332659,27.875,785.6875,-490.4375
161.0,N,-1.129010353448416,0.562985588354672,-2.0183911508342303,-1.0565175067621286,0.4857235735391795,0.10619939437822631,-1.115451042971029,25.5625,782.6875,-494.625
162.0,N,1.279678785282621,0.07564111940723228,3.1556971115958494,2.602669015083803,1.522733000314441,1.3691097886105252,-0.16643763570927445,20.875,786.5625,-490.5625
163.0,N,-0.22434146787928405,-1.7592872309858019,-1.345015873114545,-2.32314614761191,-2.9421803074611543,-0.7398371243777266,0.1585796805938162,22.0625,790.25,-487.3125
164.0,N,-1.050925591433479,1.3996069379586298,-0.6030379092497792,1.0617236909405336,2.4438692008730207,0.49894099303777373,-0.26168828828640334,21.875,789.0625,-489.3125
165.0,N,1.7243120036511645,0.04986013496581336,2.0162752840371003,0.5023873914839828,-0.24330957664217295,0.29466543738485707,-0.4682554656651273,21.3125,787.875,-487.5
166.0,N,-2.488830809195266,-0.6124271314627545,-2.8487125106328914,-0.7413634895321525,-0.580602951985863,-1.449850835411874,4.566378593405269,25.875,794.25,-482.4375
167.0,N,3.6821040205521567,1.8272504103546818,1.7480403679711187,1.03012466569576,0.6973143967692976,1.2783508609884406,-4.447509740908752,23.1875,796.25,-482.875
168.0,N,-1.96417341428007,-3.152747674473787,0.06473386493258874,-1.2215014248663811,-0.6473807925077556,0.9717278372506507,0.3543868871020452,25.4375,801.9375,-470.5
169.0,N,-1.6596254320309891,0.7001029315515334,-2.7782283767558007,-0.801100500132141,-0.8620861143389743,-0.8826450692690891,3.903729453421662,21.3125,794.875,-480.375
170.0,R,3.2556642108853815,2.012312778425762,3.1614630905539025,2.899072681915477,1.451723872368455,-2.1348399008960786,-6.336709820192043,27.5625,797.3125,-476.5
171.0,R,0.27947766686772546,3.36732862819976,1.8118952536676702,0.3720315652190966,2.2492925282730503,3.970941143931188,4.9511440038573005,24.125,799.8125,-472.3125
172.0,R,-2.463133958442049,-7.207833907801029,-3.8254207114524528,-1.6404171424859957,-4.078951421900207,-2.4129384301508834,-3.3852001303102446,15.9375,805.625,-464.8125
173.0,R,1.817568739804794,5.178347939566848,1.9033633196172413,-0.114026813102721,1.7354771451996793,0.690473677785515,3.13234902588227,12.5,794.8125,-480.8125
174.0,R,-1.5253860322491286,-3.0577834699117066,-0.10273463173094115,0.19215088921943607,0.8052799103748798,-0.5471922587182904,-2.7973315415218236,14.75,800.6875,-471.875
175.0,R,0.5779524176005816,2.962554262045134,1.1243460986096916,0.173631725256055,-0.13140637622797363,2.2998238432262634,3.4004308691610396,14.375,801.75,-470.25
176.0,R,-3.5656217397900374,-7.3023469052969014,-4.631137595602723,-3.4342908017524634,-4.790174413551268,-3.8494262449268652,-3.9879430881961344,17.625,806.5,-461.4375
177.0,R,6.903467142922478,7.936622637388924,6.38423942317036,6.176192024875415,6.879031503925723,4.35222931000314,4.287748342089591,17.875,804.0,-466.875
178.0,R,-3.2115215671787283,-2.853580981892019,-3.073858132590184,-3.35078375767364,-3.4728000374832275,-2.9137140477580856,-3.9075212148239826,14.625,795.3125,-480.0625
179.0,R,0.6181806562788774,0.7586483989458643,0.33876439210340187,-0.2324150865277918,1.0993990873621657,0.604363838282692,-0.5741446375666057,13.8125,791.25,-486.5625
180.0,R,2.2829417239024634,2.218797650686629,1.572103800274865,2.3532732316301304,0.008869110943777741,0.7738731633442478,5.331716396450397,11.0,800.25,-472.5625
181.0,R,-2.929777378294478,-1.2991273215302062,-2.190395797712891,-1.580544914150775,0.7235902191620776,-0.01182081403013234,-4.565597291045482,16.875,782.125,-495.6875
182.0,R,-0.2812644858841078,-2.1752926602249807,-0.05123322532286903,-0.7140561777456994,-2.138323134655071,-1.4848710170427961,-0.974204846589395,21.625,786.8125,-489.6875
183.0,N,1.0033105678581726,3.131907238621755,0.90658710146631,1.6434539045705001,3.776021761088135,0.8750877129793203,4.742912078139271,18.9375,786.0625,-493.375
184.0,N,-5.482770556475058,-7.73566833794814,-4.877732575305562,-5.843013239273007,-9.053876746519643,-4.314819935595817,-8.55925043688481,22.0625,795.4375,-481.125
185.0,N,6.681494140791401,8.40047734886799,6.497128393588173,6.9733555944915935,9.03281157441549,5.430499065039118,9.609228443921124,28.5625,794.25,-480.625
186.0,N,-1.0985167457730567,-2.596622409477427,-1.5022065050836053,-1.914328684275506,-2.1074072945344606,-0.7946679164247654,-4.992801914739061,22.25,784.125,-493.6875
187.0,N,-0.5521881130280628,0.10041899295681134,-0.7898187527799584,0.037559966064724844,-0.7297080876372228,-0.06274174358352616,3.0318669899745605,25.9375,785.75,-492.125
188.0,N,-3.6554962032322935,-3.4876972812469265,-1.8408681792540738,-3.2105711676723425,-2.0762517300801515,-2.5157644738433222,-4.763434716449401,21.9375,791.9375,-483.6875
189.0,N,3.940144056276137,3.95070903204966,3.0647705621423165,4.595854202205922,3.0990455789108764,3.0261637830885895,3.6541884215066918,25.1875,794.1875,-481.5
190.0,N,-0.17854020795500058,-1.5724809021442234,-1.155829518170981,-2.2153814916403345,-1.0867091184502014,-1.3901716828905888,1.3853400763734767,30.375,790.3125,-485.9375
191.0,N,-1.8986646475340803,0.47678571272472575,-0.6007867460115226,-0.7440983127494524,-0.9167774884737844,-0.2824911385201053,-3.251268138265341,27.9375,788.5625,-489.5
192.0,N,2.7087628748220136,1.0225087843667957,0.5218665052655562,1.6463211428441862,1.4757762251987816,0.7784586765821787,1.464955693071515,23.4375,789.0625,-487.0625
193.0,N,-1.1565022624533021,-0.7124550045518079,-0.5320628559266906,-1.013715437202916,-0.5704532093628797,0.1636200146798992,1.1328810330288768,24.6875,794.125,-481.875
194.0,N,0.21835864264884022,0.6937522916683265,1.9550969070349427,1.5335462525293957,1.7096491874682025,0.38248474165198604,0.15822311777338882,32.5625,796.6875,-476.5
195.0,N,0.7807086978694253,-1.1766188184388457,-0.5712993564168949,-1.397344812778726,-2.0735442879667803,-1.731144627702266,-0.330194976300023,31.75,795.625,-480.5625
196.0,N,-2.0340995812948437,-0.18306906957616775,-0.8737109313299379,0.5205122174535252,0.8038116288131815,1.219762571237546,-2.0780273049847513,32.375,798.5625,-474.25
197.0,N,0.5818852831205198,1.95911583083772,-1.185960898314812,-0.9965203909980235,-1.30773879744451,-0.8155269723223976,-0.5391504718262381,31.25,799.0,-474.1875
198.0,L,1.2317399337968353,-0.5767812679294632,3.7059026269290425,3.038992610894842,3.2180198719133095,3.1577576982693913,5.537912238249815,36.1875,795.75,-477.75
199.0,L,-1.8529416413464852,-2.711741110006492,-4.073774823188957,-4.094655710966864,-3.9274120989613164,-5.568064299099635,-6.654836764244771,35.9375,790.1875,-486.9375
200.0,L,1.3690839456458206,2.4128652072890735,1.8035207331227554,1.4840948597827963,1.9280541883251352,4.514395146374244,1.0459772426323588,32.5625,793.0625,-481.3125
201.0,L,1.0022557644990695,0.1988099823083024,0.738434525121401,0.6675393965902513,0.5891490021247411,-2.1409821388168657,4.53927183500113,41.9375,793.5625,-480.3125
202.0,L,-3.5088203382135172,-1.7000239066084104,-2.211960166377369,-0.4593941509450594,-1.3155442635490757,0.6336409942703526,-4.273941442983935,33.0,791.5625,-482.75
203.0,L,1.8155814710022253,0.8020321946277109,1.4476435744797673,-0.14964512197297028,0.5168190994140311,-1.4049150449360577,0.2623024836204222,41.125,785.125,-489.3125
204.0,L,3.825788461613507,2.3707803066668647,0.8341826749073341,0.7824787464507105,0.6671168134787951,1.9226576801858626,1.0868229649888872,36.5,779.9375,-496.75
205.0,L,-2.167480991178378,-1.0471848001947255,0.8411244154943648,1.0615262362667333,0.3758558447975522,-0.4100275141619113,1.8975100050377465,47.0625,787.1875,-486.9375
206.0,L,-0.8137879606164622,-1.2720201761410421,-1.689690118458511,-1.595954522758861,-0.8552319590569794,-0.28194557981517393,-3.802658723466867,37.875,791.1875,-484.0625
207.0,L,-0.7093885425512544,0.725712016231748,-0.1817325329204616,-0.8815966217881933,-0.8183447656266192,0.4068059046798504,-0.12636039263192514,32.8125,783.5625,-491.4375
208.0,L,0.5854827701190215,-0.13966179446798538,0.9475181521418197,2.213222094711643,1.2280351692415072,0.5483229471269249,3.4156728129148215,38.875,781.25,-494.0
209.0,L,-1.4266182977677153,-0.19834512575161126,-2.3166578696541187,-2.2970024979913375,-1.6736021027988923,-2.223872796277092,0.14428583465943073,55.5625,788.875,-483.75
210.0,L,2.373056227547685,0.8096098370253271,3.3743282678872015,3.149803420934945,2.058363260926134,3.5622236696265652,2.248924896983312,41.625,788.9375,-487.625
211.0,L,-3.237179462974791,-3.1289350787367445,-3.6645808592370077,-5.039123105125838,-2.321706885181136,-4.517583991711968,-6.287250315430901,55.125,780.6875,-493.6875
212.0,L,0.9471269447850849,0.5330677642811433,1.7921033085632507,3.1476185841451736,1.1566023584354101,2.1806061381605857,2.4829344976279746,52.375,785.5,-489.25
213.0,L,4.1471084978543615,5.568762541545481,2.250533576968667,2.7024211111995,2.8976045168781877,1.982666122638006,1.535965063657888,64.75,795.875,-474.625
214.0,L,-4.1044325744243695,-4.965729041185376,-4.205950790656287,-3.8770063943843036,-3.3708144804940576,-3.900627820874466,-4.050585670780443,35.0625,791.1875,-483.125
215.0,L,1.6670176554098843,1.7546654096174608,2.853543585258119,1.7449838791490733,1.4125045229098028,3.310587029066432,0.9824988321412143,32.4375,785.8125,-491.4375
216.0,L,0.20675485788452783,-0.5737954467544483,-0.7983864218728595,-0.5269716254829225,-0.028085759814621268,-1.9956039651145043,-0.07524848902415078,36.0625,787.875,-488.9375
217.0,L,-1.5287220980184157,-0.06866535844569172,-0.7596037510463561,-0.592693625510718,-1.275365023849608,-0.3195576064515535,8.069011906630482,50.6875,791.6875,-482.625
218.0,L,-0.4488886773689303,-1.6383112166306195,-0.5184340930470047,-0.40742497235913966,-0.14860033097478698,0.9900661359949844,-10.763565564938773,19.875,792.9375,-479.25
219.0,L,0.19234666907986547,0.5213870243227348,1.719797303306883,-0.20231827969621327,1.2408671392340458,0.21100257081175391,5.239840622316012,15.5625,790.4375,-486.8125
220.0,L,0.920587462783012,1.0217998876197552,-1.7771160191694613,-0.21833255780220928,-1.3666634256592483,-1.8323647500887064,-7.917288696190375,31.3125,779.875,-497.625
221.0,L,0.6446059402473584,1.0361167341598292,0.7156989776408632,1.5813714947111224,0.9698199872830335,1.483890623014393,23.775222176958607,61.75,789.9375,-480.125
222.0,L,-0.12888920880087243,-1.0283726891129417,1.5929932756930434,-0.25592725371810254,0.036923350544327146,-1.3931186639427828,-26.246904856300215,44.75,783.8125,-491.1875
223.0,L,0.5165089994787174,0.8076184460043303,-0.6008012714448963,0.889069145557785,0.9194033139965658,2.043240438865294,10.37588940685903,24.8125,790.0625,-486.875
224.0,L,-1.8246619866822942,-1.4015523875363123,-0.842263245943993,-1.614161218908263,-1.0673853224649625,-0.6179796229166702,-0.6211689641128101,7.5,780.1875,-498.5625
225.0,N,4.0444342595567395,2.6938723079544675,2.963757893085515,2.738299724129884,1.7733675276098992,2.078003830627526,5.9404472064051115,20.4375,793.625,-481.875
226.0,N,-2.2422450722158764,-1.2252200860325893,-2.4593101951389946,-2.2811609286225045,-2.0966052739348826,-3.173640022842793,-8.971631884713364,7.5625,794.8125,-480.625
227.0,N,-1.1055465213850006,-0.8699982456466532,-0.5176547919625364,0.14949391486348737,0.6785720710448048,1.262814031854138,2.350854492974032,1.5625,789.8125,-487.5
228.0,N,-1.0080689481367273,-0.6441105478391468,-0.11485976608232795,-1.3708130399467455,-1.8074534005747362,-0.8301125931225197,-1.1590736028285002,0.8125,788.6875,-489.5
229.0,N,0.8336198939730423,-0.6120674198082047,1.2918459991880586,2.4258161533011307,2.2831212417256737,2.3167796874086672,2.843165439015067,8.75,786.75,-493.375
230.0,N,-0.3209932775015084,0.9653374509335033,-2.940278445493455,-3.0723085072051273,-2.1778191317703777,-4.469557367960006,-3.523144182364642,8.875,789.5,-490.0
231.0,N,1.7531582630646116,2.0430395504590706,3.5815603697808758,3.6778205529213057,2.006853521478669,5.230003082431717,1.7547157129414763,12.25,782.3125,-497.25
232.0,N,0.8327402560674837,-0.21564508853388065,-1.062111816768331,-1.1196338462066564,0.31026718173646584,-2.6255070386598103,-0.24457145440758132,6.0625,782.375,-497.9375
233.0,N,-3.6595404059613026,-2.9696262605003936,-2.1535359893725463,-1.8483931977377814,-2.4722557019319487,-0.007322905742990315,-1.5475591028175535,11.0,778.5625,-499.0
234.0,N,0.058513831047056555,-0.36267090487020687,1.3504504788884468,0.20574989448531597,0.529207793216341,-0.9456187125212195,0.8616773275016585,14.3125,779.1875,-500.1875
235.0,N,1.5584106521463108,1.1229533706976818,0.1802830747703631,0.9492505676590696,0.714235129725453,1.5229285767767513,1.2162435907977405,12.0,774.4375,-502.875
236.0,N,1.5652832233546154,1.528496910956945,1.3228376089755358,1.371745601969485,1.5985422436033072,0.6955287770261094,-0.6741589092264025,8.5625,774.375,-504.3125
237.0,N,-2.0030684280408493,-0.8755423463772499,-1.8084701278476425,-1.3230174759086246,-1.4385909649459108,-0.9314353261623456,2.2430919615384126,8.1875,773.125,-504.6875
238.0,N,0.982937314534063,-1.4469784202681932,0.2225220296033574,0.33377423664740663,0.3461501951463824,-0.012243546744773653,-0.7121696059134501,13.625,772.4375,-504.625
239.0,N,-0.7582901222873816,2.146912960043237,0.37113157139119357,-0.5752572464705407,0.16182997530561438,-0.6902752763723088,0.8711456042539534,13.5,760.9375,-520.625
240.0,N,0.7866234013399896,-0.9573533015281189,-0.28117577552111617,0.24601680494168535,-0.10769894671788655,0.7539410830914858,-3.2559401830139265,12.6875,762.9375,-519.875
241.0,N,-0.9994932645872395,0.07074206914265005,-0.3933113315261935,0.2406310483379191,-1.249676713618515,0.5267087410755701,1.8316702846788016,14.875,765.3125,-515.5
242.0,N,-0.718589059130249,-1.5529342145479397,-1.0501409144828506,-2.3369357326535942,-0.7549492996512952,-2.312303624565253,-2.5619372181395113,13.75,766.625,-513.4375
243.0,N,0.5462448289370577,1.6879423099488648,1.4515903462253572,1.6679156510931743,1.4470753132920087,1.6452441875017354,4.631716255201639,12.3125,765.6875,-514.25
244.0,N,3.5785987120115297,2.42211761190839,1.7693260415202945,2.3747597844878885,2.3102249210103984,1.0534690586628404,-2.9853237192063875,12.1875,762.3125,-517.5
245.0,N,-4.953838054293586,-4.331176148317648,-2.539707459436345,-3.5002285174871908,-2.8071407339664702,-2.229784529942915,1.401150892977478,5.75,753.0,-533.1875
246.0,N,2.6541132424213747,4.501195475865033,2.3377325598177583,2.49883885134188,0.8983614218102064,2.096975452320037,0.03861075421472742,6.9375,753.8125,-532.625
247.0,N,0.26272322881588156,-2.688542843216661,-1.3507036811290085,-0.7291178638173453,0.34244548947536974,-0.3308345138375511,0.6537261278747187,4.3125,757.0,-525.5
248.0,N,-1.0427103158033535,1.0479769922112314,0.7212778490976611,-0.06881384418266782,-0.35397049765364846,-1.2008021861303941,-2.9119749770911945,7.0625,757.5625,-526.9375
249.0,N,0.3804853198633643,-1.0993913788750473,-1.3138887532792614,0.16800506494649267,0.2899091784461348,0.37415392773985745,3.3913247018123354,11.0,753.0625,-532.8125
250.0,N,-0.9973459817753012,-0.24897936356911327,0.6998786052004589,-1.2348333889177887,-1.2742076095676755,-0.4638954430351282,-3.305443566761476,11.0,754.125,-531.375
251.0,N,0.9920302823800821,1.02126305137728,-0.6708372748556339,1.2493977507524479,1.2653091142408572,0.8831893162747602,1.946478485398554,8.8125,759.375,-523.125
252.0,N,0.3425328503017308,-1.470712173499396,1.6933962099802224,0.19092505587964434,-0.12386517333639895,1.260563214064514,0.5795746551809577,11.8125,760.25,-522.75
253.0,N,-0.7359073220753155,1.6180612813836088,-1.3738432717814655,-0.14116155020995633,0.5450172428040275,-1.5544773310223747,-0.3423994934953699,10.75,758.25,-527.1875
254.0,R,0.05535536179139936,-1.6435478499515104,-0.2923367349317231,-1.3768907956944876,-1.2544125061080327,0.16863187706112642,-2.887174737322119,13.5,755.5,-529.3125
255.0,R,-1.0046596775794543,0.8540966810517466,0.5745614134122243,0.22179210057664478,0.00506765005956305,-0.12234905532859353,1.0345915353980109,8.3125,757.4375,-528.0625
256.0,R,2.0228744692664686,0.4813830892909788,0.9365709245189139,2.127262523782842,1.854497398605908,1.791104860849803,3.7181449732524627,13.375,761.0625,-519.0
257.0,R,-0.9923289356844758,-2.2474004084161643,-0.8636238747245885,-1.264593154950751,-1.9621385694937927,-1.1225888340304506,-3.399370457723572,30.3125,760.0,-520.875
258.0,R,2.5019596535744304,3.574826533228051,3.1649893507457927,2.6828200444531025,2.9531697560977186,2.3782349037956387,1.813690438716557,32.25,754.75,-530.125
259.0,R,-2.41533607617596,-1.528803675956858,-3.531208879291929,-2.8406457725984358,-2.437916503472087,-3.0801245471505574,-0.5366327615529479,27.875,764.25,-517.25
260.0,R,4.257318142860438,3.8828380312056376,2.8288667639035134,2.081787532259332,2.47114486602107,0.653810290689578,-0.603886957036967,26.8125,764.5,-516.125
261.0,R,-3.5704552870553035,-3.4374323102459514,-1.7733164288685677,-0.6702791953434866,-1.0239108314790268,0.8481075240961499,2.270564232891634,7.0625,766.125,-515.0
262.0,R,-2.235964791444243,-2.1055489003158834,-2.497493897815775,-3.170370854419098,-4.292679372518959,-3.128410561087151,-7.424617174900903,12.0,763.875,-517.3125
263.0,R,3.4646150917246663,3.6987854837523098,4.346269933623473,4.081826583678706,5.564316041049259,3.939428322481065,8.86876181543299,14.375,762.625,-517.125
264.0,R,-1.1528518804200047,-1.6864077726630247,-2.4764256546477728,-2.340267927017681,-1.9293941956659286,-2.4312725405944784,-4.791471682556155,18.5,761.1875,-520.875
265.0,R,1.9646108871780639,3.0048348889648677,3.78274398888599,3.680692755971297,1.7004250652721662,3.7093177324785307,4.171125111524221,9.5,768.0,-512.375
266.0,R,-6.976636575301419,-8.50327832341521,-8.303349141753758,-7.9805247231952725,-6.8814754964643114,-7.517019985919246,-6.8782049159698255,6.5,769.75,-509.4375
267.0,R,5.138539727630334,6.883799396218493,4.747718945063675,4.735573099139649,4.574731207692358,5.135405698058007,4.466024666725897,30.625,759.75,-523.4375
268.0,R,0.13024897251029416,-1.153237544513192,0.9828805368699778,0.5803590575941362,1.0322037878916517,0.25188715770074305,-2.098160579111428,28.4375,746.125,-543.5
269.0,R,-2.4310819717609617,-1.4790680010544692,-2.0522466833672435,-1.8238606945317288,-2.521426562639655,-2.970383661459991,4.880463603165283,30.125,744.8125,-545.75
270.0,R,1.7535667385316418,0.7806707338630334,0.7847769655844055,0.5898987834087593,0.8732795201635308,0.7568941725692141,-7.011515646997063,18.0,744.25,-548.9375
271.0,R,2.679560994156853,2.3281393866059434,1.5820891313273437,2.953515579190378,2.9029970592269843,3.41565914507365,10.992178204772216,14.5625,744.75,-546.6875
272.0,R,-2.6801433969569097,-0.5816159056950765,-0.9631420023765223,-1.503041234250696,-2.1145092160964443,-2.483751563143939,-8.68597513392978,33.25,744.9375,-543.875
273.0,L,-1.3956169375399654,-3.2964042125890223,-1.2097279599151711,-2.6610932134011906,-1.0067940034375529,-0.08399391492814783,0.49173413285164336,18.6875,749.1875,-542.0
274.0,L,1.8876460197778298,2.4198550210723133,1.4536449565327967,2.2033870772410666,1.0621614247506919,-0.287091164391562,1.2156470441418727,14.1875,743.9375,-547.125
275.0,L,-1.1689270173790212,-1.3017089653316933,-0.7202131071057516,-0.47050986623645236,-0.40982713168032003,1.7170814175891873,2.617393455816755,5.9375,756.0625,-530.25
276.0,L,-0.677095734797439,-0.2072347052145576,-0.8778656038538042,-1.0274753666487308,-0.4621513534675623,-0.7742102925967929,-2.4789217470758067,14.25,751.125,-537.5625
277.0,L,2.3953065709853654,2.6891996698745144,2.2040620254442826,3.1859581493106446,2.072668762357399,0.22892203759753738,2.763409100049819,19.0,753.0625,-534.75
278.0,L,-1.4762533820709776,-3.1845430113029316,-1.6885876717544424,-2.7168322294047775,-2.0095069750696997,-0.637473839107825,-5.109152180621728,17.5625,752.1875,-533.125
279.0,L,0.09644600303326956,0.8238549103035286,0.24002541922688778,0.2857797457736615,0.30243726657568526,-0.8718761119400663,4.356909645396472,21.125,751.5,-535.25
280.0,L,-1.4147488405615636,0.07996352453325403,-2.618587630524535,-1.1261143406611487,-1.6440337898209842,-0.7957534307107503,-6.92145105625467,32.0625,756.5625,-527.6875
281.0,L,2.183942179626139,0.541061186974,4.813960064067962,2.6664299977296615,3.515704575808796,3.477481323555978,6.673304399213299,38.625,750.625,-536.125
282.0,L,-0.9980284655976868,-0.9337067819362226,-3.2571100657514807,-1.5851022975459572,-1.949216339011659,-2.6585315030303507,-2.5348506493682144,29.6875,744.0,-547.0625
283.0,L,-1.3818704301639417,-0.6586152538196011,2.0811255879148796,-0.4700299278983189,-0.2686631919060042,1.6949894450165766,-1.3098146718056993,31.3125,748.5,-541.25
284.0,L,1.375595353172367,-0.2919980807586744,-2.0952272232441262,-0.23251663915093876,-0.6680913993037452,-1.1870769856571528,4.736693007846069,41.25,749.5625,-537.75
285.0,L,-0.9987371810819146,0.9885561667388079,-0.43478174454704505,0.06129762088116331,-0.04340753119146916,-0.4006436662916628,-5.577536414779822,60.0,752.625,-529.3125
286.0,L,3.589516273783942,2.949758484889512,4.25895973269939,2.8359425903776154,3.0753226760327026,2.786002062531039,6.309342741146204,46.8125,758.0625,-519.6875
287.0,L,-2.991522562691627,-1.9686990310961523,-3.768593727931162,-3.8517191810363816,-3.3532776429776727,-2.82923412625698,-6.937967740042991,37.0625,760.625,-521.9375
288.0,L,1.5361089554792853,-0.2724111263721077,2.3966154356201326,2.7725477050425225,1.6322425128610596,0.3313968313751115,5.174337694454585,39.25,757.625,-523.75
289.0,L,-2.7266103224904166,-0.5268089238900173,-2.3645183782429875,-0.3359137639813946,0.1176966317196434,2.1229478199067335,-1.7126475291015746,36.5625,763.9375,-513.625
290.0,L,2.738119700230337,0.03269218631576121,2.085317294070751,-0.9802850190169302,-0.9054282277971228,-1.8254163784136972,-0.18480028142763058,15.6875,754.5,-529.0625
291.0,L,-1.2263103729518248,-2.3739642731784194,-1.6100640895798073,-1.1431484579161295,0.3974541931880643,-0.0031093509849661133,-0.877755309059295,20.875,753.1875,-534.9375
292.0,L,-0.7321835973661732,3.638237757494728,0.5251555009836916,1.9366240798895589,-0.22116972918760763,0.13576499134815412,1.6679372724722745,9.625,747.125,-543.4375
293.0,R,3.291722671210585,1.1716416954793871,1.6413367525788087,1.7635970138634065,2.1828840046502225,2.014903811070399,2.69336155094187,28.9375,758.3125,-523.1875
294.0,R,-3.0085446361863384,-3.2834159318149476,-2.344016873355982,-2.814977807615903,-3.0109556339268866,-3.3927798616364115,-5.406196130624354,9.25,753.5,-537.0
295.0,R,1.7381172395219238,2.072947472432077,0.8397836318992877,0.6685718325283806,2.7252635469029327,1.9634293143345707,0.30201699284245886,8.125,758.5625,-527.25
296.0,R,-2.0327559661861496,-1.0993954076237018,0.46189141792982175,-0.34787194865761284,-1.7189033643331422,-1.048201989046393,2.861238519319768,21.6875,746.625,-544.125
297.0,R,1.127838892098757,0.5020610650046599,-1.8003531118439184,-0.0646503702616103,1.4731459022860145,-0.9974157403097283,-3.1174812376601158,18.125,749.5625,-540.0
298.0,R,-1.798804377044497,-3.215665730851677,0.44736210599061066,-0.6233109929928612,-4.241802980354487,1.591106840351707,0.742970488127463,19.625,756.875,-525.0625
299.0,R,3.115376680345453,4.906605919913156,1.9446098105442586,1.2310502378918409,5.213156137257922,1.022213600228825,2.113601913865902,38.0625,739.3125,-555.1875
300.0,R,-2.7067427504832016,-3.895451435379374,-3.0495659098605654,-1.6639958076237644,-3.965761735122059,-2.407967069057555,-5.781033304069093,30.5625,750.125,-538.0625
301.0,R,2.5345832392878243,2.28939500729501,2.62029072856557,1.3604397413171538,2.6092481621402674,0.9121307794522777,7.64533440259897,26.5,755.0,-527.9375
302.0,R,-2.2545655874860437,-0.9689665003376561,-1.291781122251813,0.5332043198371957,-1.2467635380555766,0.6341885379355647,-3.067646909506552,36.3125,759.1875,-520.6875
303.0,R,0.5143737184173534,0.09540364659957937,0.06469446426862592,-1.0860147993169058,0.1290807530898585,-0.8884489892249199,-1.2563648905330311,25.9375,752.9375,-533.3125
304.0,R,2.2542337345694126,2.4633497459274922,2.393978323600316,2.6088433510946394,2.1383528376799505,2.2314160761595105,3.601085346168083,16.0625,753.8125,-532.375
305.0,R,-1.8243627830018168,-2.513361826528105,-2.8615257757447288,-3.0949039482441476,-1.9206935295196375,-2.8888544908774465,-4.549786109907118,16.4375,755.5625,-527.9375
306.0,R,2.3994470950029463,2.2989966085160565,2.654244903404035,3.340934157639641,1.3421347737547753,3.699353976018282,6.492988056961575,20.5625,765.625,-517.25
307.0,R,-2.965480575948139,-3.2492383256358135,-2.4663685388854812,-3.31855636823419,-2.172982539291112,-2.7207145729410125,-6.511905276295518,32.0,761.8125,-519.75
308.0,R,1.2536829555203304,2.451071405905114,0.45520698198835385,1.5526473486013967,1.2981482714188584,-0.41908717618749963,1.5197536904678972,18.625,759.375,-525.4375
309.0,R,-0.9794561400203302,-0.5610307438465425,0.8765727805250906,-0.18442449093645405,0.8968216447287088,0.5345465119527477,1.4809499888208528,17.875,757.9375,-522.1875
310.0,R,0.05103445150493803,-0.07639195119990995,-1.9592104562655464,-0.868033289046517,-1.6815151662153867,-0.9882987131841598,-1.3309547054115582,15.0625,764.4375,-515.875
311.0,R,0.16416240871332638,-2.459018089869216,1.5427748375300112,0.5687218014758719,-0.39138786939714876,1.9927037241095245,0.946477847971255,25.0625,779.9375,-495.5
312.0,R,-0.35660478272140156,3.1049095360346968,0.7097281144439309,0.8628904504095044,1.5471554982871403,-1.635225616641467,0.0836105655547076,32.9375,753.0,-533.5625
313.0,R,3.0366547473197976,0.21125610107954504,1.1086086229770167,0.01456030915374879,-0.004338167593836375,2.4518747630696285,-1.6898892785555313,28.125,760.0,-522.25
314.0,R,-3.7682457935124165,-2.1532652875633613,-2.2769516226890705,-0.9278013096024673,-0.6448124259498491,-0.9851266044971058,-0.2335387635239818,22.6875,759.875,-524.9375
315.0,R,3.694451145483837,2.7250924960675778,0.39782492801379193,0.30828561406867355,-0.06717907874631908,-2.7753936541952373,10.296032779574519,18.0625,772.0,-504.0
316.0,R,-1.8252306000209992,-2.0629288517348776,0.7986462315294361,-0.1227940838701818,-0.19090773911185988,2.7119246604266394,-16.900342494076504,32.6875,752.0,-532.375
317.0,R,0.9933206412440988,3.8054061978156875,1.2526247586701182,2.0592272375715917,3.3935214400999145,1.252617352383242,12.745824919096172,29.5,758.0,-527.25
318.0,R,-5.580535779675243,-7.625272497248815,-5.310001816009266,-4.493918686494103,-5.811002430130507,-4.011254466871719,-6.260880234531942,19.75,760.9375,-520.9375
319.0,R,2.665214994187523,1.7405460781553683,2.0180139174412997,0.7735084800522913,1.1016014446962898,1.815488262150032,3.5580472373789673,14.25,773.875,-506.4375
320.0,R,0.8142860094907237,3.120396838519276,0.9127772681720978,2.0557205426926943,2.1483286106684205,0.4606848570758607,-1.8575129082427482,20.25,774.5625,-503.125
321.0,R,-0.6231316380718375,-1.3435994361385688,-0.2927304140096732,-1.088308483211659,-0.9336725233676396,-0.9300586746226607,-3.3728144131145936,18.8125,751.6875,-538.0
322.0,R,-0.532763438314104,-0.5410708062987433,-0.1817259351278185,0.009236682588494659,0.4129794719341144,0.2754892381764685,3.0898123115011433,20.4375,756.25,-528.9375
323.0,N,2.5222091144496903,2.633335425763103,2.693798653358549,1.7545144239884387,0.8876603697670796,2.9954337423690416,3.5484445951082915,11.1875,767.375,-514.3125
324.0,N,-4.037297665990712,-4.708363062570394,-5.874853075092933,-4.697661654795026,-4.95983949167888,-6.117015676047536,-5.600982333839587,26.375,769.25,-507.8125
325.0,N,6.246354801136664,6.856668058199787,6.636131754812758,6.750994685681419,7.1215744958244125,6.079652331408961,1.9161839688711952,24.5625,756.6875,-530.5625
326.0,R,-3.1546576425714776,-4.395292042465256,-3.251015485856184,-4.224926595223062,-4.24319886698986,-3.4202185670733196,2.6846460071719567,28.9375,756.6875,-526.1875
327.0,R,-0.7436417814924892,0.2890790592257249,0.3665824019681075,1.2306145718227195,0.5491935701174413,-0.03609784167113321,-3.3952601181524824,40.8125,759.75,-520.25
328.0,R,0.3411905202208754,-0.39611714965735245,0.1520508419246694,0.5228298861846249,0.9515790640612845,2.8349071722851678,3.15294492713237,36.8125,764.875,-514.25
329.0,R,-2.5715423026237745,-1.599285009166136,-2.6094148539596427,-3.890509801551224,-5.1761321689178565,-6.254393264096402,-4.74329637289248,26.3125,772.4375,-502.875
330.0,R,7.4905437433189785,6.675060293688498,5.758218134417837,6.0764981335017785,8.508424178132838,7.444124599699222,3.019830826885793,34.6875,762.125,-519.5
331.0,R,-5.036724088278173,-3.98088855835053,-3.1198775496030775,-1.8189907502961167,-3.405195664054708,-2.6087306165842246,2.6559994076529336,39.25,758.1875,-523.125
332.0,R,1.5314765635576268,-0.2603019390095981,-0.2485328108078737,-1.4640861561895133,-0.20277402550915893,-0.37810595105589845,-3.5717759700463443,37.0,762.1875,-516.9375
333.0,R,-1.2597724659195078,-0.7388140065025801,-0.09891238966063054,0.022874504804652303,-1.5853371302174946,-0.6896779475793714,3.428546583261129,33.25,771.6875,-505.5
334.0,R,1.6195119951158055,1.618772893690124,1.34885838031646,1.9156702261455638,2.8655612709653413,1.9418319676293683,-3.2242365286925443,31.0,764.625,-515.75
335.0,R,-2.577704291150452,-0.7431329578113233,-1.140803373462536,-2.36843668961261,-1.5831611140000796,-1.845467372348594,1.5400258395771056,38.375,762.9375,-519.1875
336.0,R,6.7909439684616855,4.9158810900662395,2.9685233245702265,4.022868668512437,3.224563657458822,1.5616027475871648,1.3161547083354628,28.3125,768.6875,-510.5625
337.0,R,-10.814213957725604,-11.151468077612527,-6.876567082259633,-8.08340917049325,-8.669114509380554,-4.079454274511367,-6.240831333982136,30.5625,772.25,-504.8125
338.0,R,9.13557618775819,9.417680715473763,7.30188249726232,8.68284374764895,9.764033335293588,5.896988451838068,5.519808921880178,16.375,753.6875,-534.3125
339.0,R,-3.5500452507936635,-2.7032792865450928,-3.0883188347679638,-3.901981006774902,-4.644513920614254,-2.8094763611580222,-2.4174410179783377,7.6875,752.9375,-532.6875
340.0,R,-0.3885056616035402,-0.019007575850505533,-0.002093893152253145,0.15753220847799798,1.631167329816325,0.10193872206812497,4.61160391347787,11.4375,759.5,-525.3125
341.0,N,-5.83757248013547,-7.368864419436355,-5.136100428101956,-5.150193475967946,-8.080148067183716,-3.412425660003281,-8.993449742518871,17.0625,772.875,-503.3125
342.0,N,8.540906175780538,10.201257448192534,8.790577815369902,8.298287395622605,11.385661161731235,5.86047531372563,5.036985532869316,25.0625,766.3125,-517.625
343.0,N,-3.9950914426998354,-5.467353411339062,-4.7677183527494815,-4.301157807941721,-5.628853745463411,-2.5581967964416013,0.32275775693169545,41.6875,777.0625,-497.1875
344.0,N,1.577776571899086,2.6734970173902095,1.0348139310920796,1.8721518953898924,1.5799114270907217,-0.4482190214344023,-1.2122798836076836,46.625,759.0625,-521.3125
345.0,N,-0.4311268264468374,-0.5536142721074768,-0.29966965369497767,-1.248943803761218,-0.9944707520499019,0.8292901352586491,1.222872153105317,50.9375,756.9375,-521.3125
346.0,N,0.7570226454191139,0.4702790355447827,0.4959373313064099,0.43631250538494964,1.5997755255173263,-0.5196812697172811,-0.5476447252170328,46.25,758.9375,-519.9375
347.0,N,-0.38768377040646634,-0.3381429750353063,-0.8229378695039519,-0.3807088501755502,-1.5423523346021761,-0.30279646800079557,0.9845660002015757,43.625,761.0625,-517.9375
348.0,N,3.566144459770032,3.6634029756965902,3.236530131181659,3.3967568757564703,3.34518081442311,3.1542760208974796,1.7641694403270511,37.8125,767.9375,-509.875
349.0,N,-4.324028939786295,-5.07921323808384,-3.0117190116573753,-3.9079324991794153,-3.811642154563746,-3.5738508831735802,-2.7906330435401556,41.5,772.125,-504.5625
350.0,N,1.4972557197595338,3.1835295541288953,0.3205170322548706,1.953368391715367,1.9797901116832894,1.1672121754315843,0.526365049241846,41.625,777.625,-498.1875
351.0,N,-1.2033473210785433,-2.3500181360781816,-0.6124990238989179,-1.2977701000487982,-1.24755772401177,-0.5126718215516206,0.11117872539434165,36.25,780.5,-497.375
352.0,N,-2.4137337050492382,-1.6521272864943057,-0.48456849691393644,-1.1093009197993347,-0.26029466954081126,-1.0517230112000022,-2.04728657481488,35.5,791.6875,-483.25
353.0,N,4.393668255613574,3.6282302719401303,1.2602157934787428,1.80677115422021,0.8081773503745937,1.016564930245455,3.1235892375604086,38.4375,789.75,-487.1875
354.0,L,-2.2104891750447826,-2.336640548350847,-0.7352162225265456,-0.9874255691308956,-0.8722104758557002,-0.3724758019515923,-2.4667413902393416,42.8125,778.75,-496.0625
355.0,L,1.35320958709558,1.131376713899515,0.35474477101311847,0.851290652880786,0.4319104705446825,0.6005120754516788,0.26415940418038736,38.0,780.9375,-495.6875
356.0,L,0.37191699970346415,0.10409193191244037,1.6482806033634,0.22507782281112873,1.018214047748659,-0.7423385040632148,-0.13401718523830686,40.0,791.0,-486.25
357.0,L,-3.3877165906249185,-1.918442003338331,-4.371420864786026,-1.2727774757621817,-3.3087689468828683,1.0342231607182868,3.194302412696121,53.75,785.5,-485.5625
358.0,L,2.6415794460467596,2.2102965672088875,3.636148204680029,-0.007008329505650181,3.0192302870125296,-1.020449032305187,-4.811671072678083,45.125,775.5,-500.1875
359.0,L,-2.464021887187865,-1.3101362169477544,-2.1362756720015916,1.3766346278342232,-1.4787492027492921,0.7091289022188398,0.34557664986047987,37.0,776.125,-501.0
360.0,L,3.4900087806909044,2.8078552839894617,2.9139464770902976,-0.8228380868158284,2.618317073316077,-0.9419736651171075,4.749051189727155,33.375,783.5625,-493.0625
361.0,L,-5.196382017776999,-5.403768633027897,-5.921529692710813,-1.719303581210769,-5.2857307555907465,-0.9712041277941637,-5.1276851609158145,31.4375,786.375,-487.875
362.0,L,6.423270306574847,5.205296498754509,6.9286937155468795,1.7806890682855774,5.204454313284563,2.4989733063250132,3.278683376937474,51.25,768.0,-515.5625
363.0,L,-5.364177481941933,-3.6056730090478513,-5.884612105227452,-0.5097717712175007,-4.05263261608829,-1.8597810792732632,-3.664224328732,50.1875,802.25,-465.25
364.0,L,6.115320104923545,5.349979339736632,6.411439819024691,1.6684410526053683,5.158989285092336,3.2738859351990297,4.990835647564396,19.0,799.0,-476.8125
365.0,L,-8.826342897897932,-7.235916113310442,-9.27914180094222,-3.103438082321687,-6.369863895116916,-5.596493651724511,-4.008675892296899,41.125,804.875,-462.1875
366.0,L,5.74976239136797,1.8067823213595116,7.1065349150168435,0.9554667193465021,3.421812428962756,4.58201545018437,1.4237595228959217,16.5,794.0625,-484.25
367.0,L,-3.353619942461174,2.2771890489662634,-3.7543340865092922,1.6887934670604892,-0.1838628746238992,0.40480436893226973,2.1639069982758055,32.6875,814.0,-442.4375
368.0,L,1.768963622487371,-1.5937282544102482,4.252937237105466,-1.2039618291062046,0.5388575770754919,-2.5193164491082762,-2.264627112830688,4.5625,777.875,-505.375
369.0,L,0.9617896947388436,0.4893032236284871,-5.532706282192967,-1.373795323210961,-3.6929501519152965,0.7571744334853856,0.3128552300246365,21.6875,804.0,-462.5625
370.0,L,0.907422872867829,0.7432585350138047,7.216153056599898,3.559293796603995,6.057184706012294,1.3282326092820458,-0.9498773336888275,4.0,793.0,-485.875
371.0,L,-4.244664463114017,-2.764624555538615,-7.747163124793061,-3.7087965011272357,-6.781241965780471,-1.5621298833193564,0.6546909407640578,1.625,794.8125,-477.125
372.0,L,5.477326831670332,3.0963878891807073,7.3518920961868846,3.017132397684748,7.731051876572896,1.781688852863535,-0.6984120155571559,0.8125,796.75,-478.1875
373.0,L,-3.8747265816592398,-0.48847031764356846,-4.089158066047741,-0.21679487597140906,-5.201853772961203,-0.43495989664329543,1.7956257537822495,12.0,799.125,-470.6875
374.0,R,4.393210966748943,1.626326918484327,4.825481603814471,2.3749938156699075,5.754951041438297,1.921737611456897,3.989900649151807,14.5,791.875,-484.0
375.0,R,-0.9675877571203054,0.817636620521856,-3.1422207642527638,-3.500124445216548,-2.7062126449942627,-2.0620641388736987,-6.8019229832662385,14.875,793.1875,-481.625
376.0,R,-0.7992578012031251,-1.4846162524583624,0.6794319930297397,1.942378335147601,0.37103111246594656,0.6854402166939715,3.146967976397678,22.625,787.8125,-486.875
377.0,R,2.4600761054061198,1.1275501150738174,1.1817887230973538,-0.5320093945421004,0.7147339668774559,1.0229663462177527,5.174127766800411,35.0625,760.375,-525.625
378.0,R,-4.4341946777407815,-3.8707339455583667,-2.445942420671504,-0.12801564705692453,-3.838193411710183,-0.7699146621057389,-8.662660763054978,47.25,781.625,-493.0625
379.0,R,1.7785488430012801,2.7437516233544397,0.7014764421491675,-1.2816724142617175,3.4172742042381103,-2.3596979278682975,6.494517888116985,52.3125,777.0,-498.3125
380.0,R,-2.2358319022719058,-3.3661541258755783,-1.8281771558366586,-0.5287817699154057,-5.418363309334568,0.2682027938507565,-5.514960204775101,45.1875,773.9375,-502.75
381.0,R,4.121264674481112,4.021908562260713,1.960443570666587,0.47823683257721816,5.022225292089021,-0.16217651378022718,4.660045664847254,42.25,774.6875,-500.875
382.0,R,-3.460376435047311,-3.6098444461742734,-0.922729038214309,0.7989526744231055,-5.228752835377208,2.139437396449895,-4.251622220180406,33.5,775.8125,-501.5
383.0,R,2.4785429147222913,1.9982184694925593,1.5219776173312192,0.1376003512895745,5.889702445302974,-1.3388031196439452,3.263284866934766,44.1875,761.0,-523.9375
384.0,R,-0.7221100874508584,0.21169188197319228,-0.626563065940314,-0.08394397488357083,-5.8895697832835125,1.3840313835830766,-1.0741429715331938,34.6875,772.9375,-500.375
385.0,R,1.3139761029429573,1.5652073603535854,0.43182299126728824,0.5768163998484119,6.800833629992978,-2.0876583403745816,-3.033735274286724,26.25,743.625,-554.0
386.0,R,-7.971717595445823,-9.024324245774068,-6.333895636062423,-5.630337874582807,-11.676711015292389,-4.463864410631802,-3.299560743409138,30.875,787.9375,-482.0625
387.0,R,7.983189547112758,10.329737812856951,7.286870554663918,6.022784057853213,12.585309840550007,7.038433888034243,9.78696553331019,13.4375,775.75,-508.125
388.0,R,-3.2664106341518964,-5.240454369601616,-3.696611047893726,-3.15168760301965,-9.260028315131533,-2.694449300013957,-5.715176195278065,19.9375,785.9375,-490.0625
389.0,R,3.9102235537624876,2.8220867984761133,3.478629308922607,3.453644991621294,8.463105078470829,1.3806724315544079,2.5893113636991254,32.8125,770.625,-511.3125
390.0,R,1.3326355274684993,2.730995320569558,1.0620859786538372,1.4066195789462321,-3.8361819354731987,2.903430270670655,1.8913839925128348,42.25,805.625,-452.875
391.0,R,-5.961924943362624,-5.876645478722054,-5.4777129724269855,-5.702881486436654,-0.5030387339852899,-6.503918374397059,-5.4650793595344185,38.5,766.0625,-521.5625
392.0,R,1.880105039387173,2.148768902601023,3.1324803617312953,3.437342046799342,-1.5230972767188904,4.347576320604891,2.8281788651798254,30.625,788.125,-485.5
393.0,R,2.777538778994244,1.5197854042229983,1.0895551263192906,-0.2850365986022557,4.617893937786093,0.1261272928900562,0.930754876781102,26.375,782.3125,-495.8125
394.0,R,-2.5761754152075214,-2.0918687041334447,-0.4715563812603801,0.3082240754017628,-5.632224878244373,-0.8746472394859534,-0.8515588113482461,40.0625,799.875,-463.6875
395.0,R,-2.1427572678537334,-1.730765336329897,-2.6774167229534735,-3.8477546478199183,2.26394843124014,-2.7908066358953887,-2.855675884997219,63.875,771.875,-509.0
396.0,R,7.295902135031562,4.746125898560741,4.944356231857384,6.642505427072999,-0.49230633697681697,5.3895166147226155,4.291964394373718,45.4375,823.6875,-424.3125
397.0,R,-8.460747899049327,-4.836545976720245,-5.954415306776264,-5.873671797831246,1.439249639155668,-6.952887599591441,-5.227872883427087,42.375,789.1875,-487.4375
398.0,N,6.113121161796372,3.22853109627621,4.642979037855731,3.9524998759901684,-1.5090650268002161,6.503216190741785,5.270954229287742,50.1875,777.9375,-495.5625
399.0,N,-2.6931659380000257,-0.7077695431458179,-1.6038726033470256,-1.4643067629017448,4.910570697334899,-4.373748883008996,-3.3372993128185096,51.0,769.5625,-508.4375
400.0,N,-0.9692677166142663,-1.3537597528236622,-1.2341999079248962,-1.3825955991271843,-5.138154002605221,1.5845945275384137,2.2064034901160294,47.9375,783.1875,-491.0
401.0,N,1.5204041399082742,1.26030832337531,2.0075658750982663,1.8277625519337333,2.810177233073835,-0.9244839246660037,-0.8053925368210343,53.5625,778.0625,-497.8125
402.0,N,-1.410041839604443,0.19894587978035067,-1.749265520711347,-1.4354527546124531,-0.7549195166038044,1.197308109567891,1.2207140740301385,45.0625,773.875,-502.1875
403.0,N,1.057308173567222,-1.0522013180646332,0.9798952668126749,0.9145754941509563,-0.4082323060809167,-1.118823094084707,-2.9762709017140425,41.6875,756.8125,-524.25
404.0,N,-0.23172527340864837,0.1853603321698455,-0.33118361372382105,-0.5251840825816613,-0.37599773655162233,1.3194987370465732,4.0774972397613745,40.75,762.5625,-517.75
405.0,N,1.5272879003602906,3.101877353459216,0.6600353195715033,2.134912211183527,2.7812949776191362,-0.021658930703239092,-2.850497368083037,49.625,784.3125,-492.25
406.0,N,2.0964153542031725,-0.3035161167658166,1.4663336256966777,0.5951023963991261,-0.1998942586506014,1.9371057860429628,2.2230696032579726,48.9375,784.8125,-490.0
407.0,N,-4.779501745037255,-2.906650637250515,-3.10636438752876,-3.1897544863636513,-2.3041980225795533,-4.119352201304726,-3.4019694240893497,46.375,786.0625,-490.4375
408.0,N,2.377734328698064,0.6735889305321066,1.9178815798192126,1.646796478979351,0.5429750125796261,3.1693574705515095,0.3604557495414456,49.3125,789.625,-484.5
409.0,N,-1.7687835630379702,0.09663283982511803,-2.7414941080954023,-2.3477124779720495,-0.6293329387114447,-2.0747589809017217,3.5662379559528867,53.0625,784.875,-489.25
410.0,N,1.0597350898686635,-0.6341846714259586,2.3648648460388286,2.6314954661454504,1.528110848247333,1.462918823641256,-3.3121245746202232,50.25,774.8125,-501.375
411.0,N,0.9947856119859579,1.8551140023280401,0.859699530726238,-0.49264251141624377,-0.8869945521822078,0.9114903501944136,3.056137935441654,44.125,775.1875,-501.5
412.0,N,-2.131237475293591,-1.6826779691769358,-1.988211997897015,-1.7250957122825508,-0.3296629309254287,-1.5552407768759933,-4.1053104383610695,39.9375,779.5625,-498.875
413.0,N,0.09411567130793287,-0.37244899351596056,0.08393285250990437,0.7925145257025529,-0.14107405481411867,-1.6262746210360142,0.9989484612405686,43.375,778.5625,-497.8125
414.0,N,0.7283876259277003,0.5914312302113853,-0.07491501685236199,0.6198585011974974,0.3048496243599725,1.246866267414845,-1.4480729323148707,41.8125,776.6875,-499.9375
415.0,N,-0.7014554176437002,0.7319573716370202,0.10638196873582706,-1.169041591406233,-0.1603311456089456,0.11656413777897864,4.1601954082215595,40.1875,777.0,-502.6875
416.0,N,0.12693537193252882,-0.9024268817918301,-0.48278192211511534,0.21586463010709303,-0.30076333335552274,-0.7393215642920342,-3.63371120547361,34.0,779.25,-497.875
417.0,N,-0.6871905241006887,-0.635819690953588,0.1918837557561193,-0.02709419500331876,0.007441109617701784,0.6135854467186821,3.9559119517532286,31.125,778.0625,-498.8125
418.0,N,1.587916772294544,2.461303036978353,1.4291200972935318,1.7075107255849133,1.6379009589224593,0.9510435687764456,-1.678928530340569,35.125,774.8125,-500.75
419.0,N,-1.0952420291486815,-2.6506946404434624,-1.3719569606803907,-1.7682848518050973,-1.5979129686879494,0.29675781832383086,0.14675001623631145,36.125,769.8125,-507.8125
420.0,N,0.17112046992403088,1.7311431385466445,1.6094814354809008,1.7973211474578419,1.4546828282594715,-0.19212895213152842,0.16606273383907638,31.125,765.625,-513.5
421.0,N,-0.35478405638708727,-0.7891996443639933,-1.845353314217179,-1.80673252581834,-0.15390595453078046,-0.9600337021174048,-1.1033351837552072,31.875,763.125,-516.875
422.0,N,-1.0298413089869292,-0.6660621624041005,0.8045379837930177,0.7466266938919895,-1.5580991261943076,1.1805969844140647,-0.37807436166018576,27.6875,762.3125,-517.125
423.0,N,2.7383465329957852,0.7945844728525798,0.46634237202552686,-0.03526948785294772,0.5720712533763612,-0.8315897913526833,2.523093261384436,25.0,759.5625,-521.3125
424.0,N,-1.0047070114763514,0.06049112745602895,0.062008994568886235,0.03831147016448964,0.41217380058238495,-0.30488176824428587,-2.1014975651378482,30.75,757.3125,-526.1875
425.0,N,0.5361257385574696,0.8546358115279703,-0.1717894653988564,0.6418139735396612,0.10073990168433812,-0.3156153208588153,-0.6813417839575187,33.6875,756.9375,-525.0625
426.0,L,-1.6843491312748704,-1.2791598079001547,-0.3496977872983911,-0.8942752856070633,-0.9356552618847223,-0.4162154322858978,0.33170156608319384,32.0,756.1875,-528.3125
427.0,L,3.3494847466411564,1.8361589815569992,1.1674694092224542,-0.7858194895665178,0.8343240250050405,1.294952802151659,-0.07196458666528088,39.125,764.375,-516.0625
428.0,L,-1.224144658305422,-1.3610736824670449,0.4846166951175983,3.61131214568198,1.8472905009571314,1.153506413028237,-4.900065559096853,23.75,783.25,-489.0
429.0,L,3.507803836537007,5.435274299873693,1.234608586537755,0.3612528202786175,0.28003433253869137,0.8280886529235354,9.605376438113403,2.3125,790.75,-482.625
430.0,L,-6.165634256312494,-7.502990168286354,-2.9118386758500523,-3.665425837213207,-2.0013655466271856,-2.4478744071838228,-5.300505725287245,-10.625,808.375,-462.5625
431.0,L,-1.06903226024578,0.7714862610894042,-3.0795018624229558,-0.0898890339341134,-1.8479512040478865,-0.6980974037184089,8.014023959508085,28.0625,788.875,-486.125
432.0,L,4.191685832612122,1.6796923127663947,6.068549610086429,2.812652010663288,4.492734159879174,3.2824075015634504,-7.867671578863435,24.1875,777.4375,-500.25
433.0,L,-5.255028192137563,-1.41124084888885,-7.775881854942638,-4.659986759341569,-6.223968548775882,-4.480579569732594,4.755376708074366,58.875,780.875,-492.375
434.0,L,6.262615732312414,2.7244114960627623,8.366098911105901,4.418339124971314,6.852895019909938,4.403528206702427,-4.11590627381758,14.4375,766.8125,-513.375
435.0,L,-5.344480337719272,-2.302596667362582,-6.871598168198512,-2.1246415952811613,-5.266272986581302,-4.016310659517468,5.139252595829104,52.625,785.9375,-487.875
436.0,L,5.068581015927225,1.469737334828203,5.902162980058007,1.0767910813634578,3.324376193393845,3.498734240819942,-7.601702023667321,30.1875,778.5625,-501.6875
437.0,L,-5.346424164787191,-3.2145187580056125,-6.05490952264994,-1.619145689722044,-4.4400523865919475,-2.847900075125434,3.5041978769997333,20.625,784.125,-488.125
438.0,L,6.391882840787213,5.32429168451919,7.099391122276931,0.48883121221333375,3.5573936587190027,-0.7736186396137971,-1.979728054410054,10.625,784.4375,-485.5
439.0,L,-2.584905707064524,-2.233025205351284,-3.7573070723500646,0.7200602307247063,-0.17487098648683058,0.056266886080028146,-0.6155566212147496,15.625,793.625,-487.25
440.0,L,0.2198964521482344,-0.5582395212231052,2.148005201435806,-0.8474249213732338,-0.36490697433203556,0.7789885944918956,3.630634520641999,12.3125,789.5625,-487.9375
441.0,L,2.3358486177854467,2.6137328632146177,0.41980893664230734,3.4240516028452848,2.0504278583585576,2.3489217466592627,-3.1447785090195723,-6.4375,785.25,-492.3125
442.0,L,-4.633363094216138,-3.6650287069853595,-5.469081853986317,-4.7340594877939095,-5.078146662965055,-2.37505470747663,10.640565467775511,23.3125,781.3125,-498.5
443.0,L,2.671832991553737,1.248765340099022,5.2569423310068855,2.8171205436306646,5.4969940064378315,1.4113908567715208,-10.5147851792704,11.0,779.125,-501.1875
444.0,L,-1.9742432103311138,0.7261265705074691,-3.560546166285048,0.5447678621488019,-3.212856749776415,0.10553340934513289,2.8954394304796724,16.9375,774.125,-505.0
445.0,L,3.471460693512823,1.813579017606461,4.283945742734358,-0.6868595083541034,3.6964833690521,-0.3775107355432781,-2.0828749054863005,8.6875,782.5,-490.1875
446.0,L,-3.107469899602591,-2.1653199080141503,-5.5704753624514325,-0.7011078126993454,-4.902226796589042,-1.7601223306470761,2.6465175914782013,17.75,813.375,-452.9375
447.0,L,1.7284625289527935,0.5738001446851975,4.175825474506286,-0.4288339551299448,2.793612339258865,1.8919289183418075,-2.1313858790323135,4.0,783.8125,-492.625
448.0,L,-1.4587261455287897,-1.6446037951171593,-1.2309711350848946,1.955640572131998,-0.7121080460375967,-0.46689499990497313,0.1999277991499116,0.1875,796.1875,-480.5625
449.0,L,0.1293869609852843,0.6726202759786413,0.7432559429693157,-2.3796771687210643,-0.31812491911294616,-1.1275881406597101,-2.168821121824135,18.5625,771.1875,-505.3125
450.0,L,0.6104625395040776,0.5164261624926485,-0.47519976128511915,1.1869437636299804,0.13975275009244206,1.246016252128766,2.084171810837799,24.125,780.0,-502.5
451.0,L,-1.3257391755138597,-0.6943336991983843,-1.876227950992732,-1.3431733071097873,-1.9124409926142953,-2.06967765874399,0.7937287035570052,23.9375,781.9375,-494.6875
452.0,L,2.769000858681221,-0.5745833490476612,3.422995485769864,2.395399578078803,4.069089149421329,2.5179500000532897,-0.973846121561779,-3.75,785.9375,-496.5
453.0,L,-5.943956124916692,-0.6997092323573602,-6.435439027296342,-4.241654047370788,-5.651952584655374,-0.7631079613177033,0.8136193280576577,-20.625,783.5,-494.1875
454.0,L,5.2145427414010355,1.8425133066005672,6.803853320838854,3.4274945064418794,5.213346970877597,1.0685149922732982,-1.3143890230121813,-6.75,766.75,-514.5625
455.0,L,-5.139448366437329,-2.7252401975009923,-5.548281733510721,-1.5127262984797858,-3.205970861208881,-1.7524390842308735,1.6222773018148928,8.875,774.4375,-503.4375
456.0,L,6.531485964946389,4.214869193968443,5.86593787070763,2.0929897723382767,2.95938471056742,2.1512952441378315,-2.0377605284602787,28.0625,762.375,-519.8125
457.0,L,-5.716991079160828,-4.671140352342272,-6.4214944930713065,-3.0351630068706426,-4.161683730581626,-3.4998989855392497,-2.702116454197321,33.125,774.0,-506.25
458.0,L,6.391048888562269,5.375153758251054,7.87480009968165,3.189904797746709,3.9564104219560794,3.561119799057504,7.5505912759823675,37.25,778.9375,-496.3125
459.0,L,-4.127067491225634,-4.536733052393902,-5.873537231076716,-1.284790664891073,-0.8532106788215961,-1.56761282753995,-6.934711039058433,11.6875,803.3125,-464.8125
460.0,L,1.0513875170987352,2.4080277161997445,3.993691937895331,0.43511880191530644,-1.3426917001959051,-0.38389884815095776,6.4274831534508765,4.1875,799.5,-472.5625
461.0,L,0.4502397596660203,-1.692837654299194,-1.6077388746969254,-0.19929086389613054,2.7769097164788334,0.5638079202489539,-7.450468948325122,-25.5625,782.6875,-498.6875
462.0,L,-1.071214639658484,3.224457416811425,-1.9024421120764554,-0.42815901023905373,-4.860304443044294,1.0636347182469659,9.454183747133357,10.4375,807.625,-450.8125
463.0,L,-0.8093443531025262,-4.117699679623253,0.9735099816073454,-0.35431618138439525,4.406584127925985,-1.7353462944556755,-8.894599935051152,1.8125,793.625,-482.125
464.0,L,-0.5515824432323638,1.871790417066139,-3.8644721249958445,-0.6048816519178958,-4.796572596420885,0.3957046380015453,8.055063003160127,-0.4375,802.0,-471.0
465.0,L,0.20639385457801018,-1.4561289018302455,5.5676451052449565,-0.281814544074201,4.705891148832716,2.188373515880479,-5.507944833959246,-29.875,795.875,-476.8125
466.0,L,-1.9136132822663126,0.8621289779044083,-5.594413059675796,0.8724571584998064,-5.420113747928944,-2.8032988481127723,0.731812498332651,-2.1875,808.75,-452.1875
467.0,L,7.3266651091127,3.1075733399125025,7.894998156154729,1.9005650492280084,8.301254919323167,3.529447306491136,3.123326223389871,-28.5625,807.6875,-459.8125
468.0,L,-5.665352758957741,-1.9167328048966688,-7.5812444399168015,-1.549514598314187,-6.509160384811421,-5.184693289637773,-3.685050305147009,-6.0,796.375,-476.1875
469.0,L,3.56213611230078,-1.3350943197360847,6.71110987500615,-0.29591614153204,3.9189276647694316,4.2038827742835165,3.595360609744796,-14.8125,785.625,-490.375
470.0,L,-4.857299848449773,-0.06389938825069436,-5.92447280714773,0.09718280093991712,-1.5699715697782703,-3.3764732406322615,-5.937616574226673,-21.625,790.5625,-487.25
471.0,L,6.852678430728571,1.7738094005484113,8.008753789796716,1.3631429488215234,0.18284550736234087,2.1489538844863483,4.763620827079311,20.0625,786.8125,-488.4375
472.0,L,-2.022423121193122,-0.3870392051325416,-2.905804251828173,1.5511159009567173,2.8319954651677826,0.8123870147153253,-0.38222586830174193,46.0625,784.75,-491.0625
473.0,L,-3.1922192279736237,-0.5501246206252599,-2.7483475175745733,-4.222838150401214,-6.1673371867882,-0.19194421830415195,0.2722464984717508,11.375,796.5,-477.25
474.0,L,4.7505608751855295,1.1382507514689086,3.778519994306703,3.773899185962092,5.771394342006768,0.1805979543677272,-0.16594033390493995,-17.625,782.375,-502.3125
475.0,L,-6.11122936530033,-1.01000356216427,-8.906917030084065,-5.398605427635215,-8.665691590859595,-3.0195812919422282,-1.8750493929626175,2.0,786.0625,-492.9375
476.0,L,0.7202106893021798,-2.5706664326403144,5.83884113693814,2.0324790925108958,7.224497046093951,1.349052926970672,-0.28130065760254297,4.3125,769.1875,-512.5
477.0,L,-1.136541203669458,0.3065198120322775,-4.1105636938746395,-0.5645047874344254,-3.568399729678836,-0.3722214868246292,0.5332136755114598,49.5,774.25,-497.625
478.0,L,5.294287659283013,3.278429652995375,6.300382085113847,1.355660473738681,2.506149182420642,1.2808689633257213,-1.0712967232575037,8.25,784.0,-492.5625
479.0,L,-6.601576334362337,-3.887473746690928,-6.5411128292865,-0.4343605344911869,-1.2137621613419738,-0.5543753366556755,1.5792914319288247,9.6875,788.0,-487.0
480.0,L,9.947865551417836,6.524702286379354,11.024287216018696,3.8759798791925024,3.948110453954554,1.1372810114411058,0.9059002130960171,21.8125,770.5,-516.375
481.0,L,-9.948925361974581,-7.756449434452712,-9.08643605797252,-4.124959158691616,-1.2875474749192504,-2.3332857002940037,-6.0712410868838145,23.625,798.0625,-466.8125
482.0,L,4.606344340587579,5.727507067314451,2.0553231228048436,0.880256572890124,-4.9126858267530515,0.7207167116417585,8.5289103934239,3.0625,783.6875,-500.375
483.0,L,-0.4436771780412048,-2.65117656396736,0.8645565560455852,0.553168335871718,6.222937687778024,0.09252431263005757,-4.937587675560544,-1.5,791.625,-482.875
484.0,L,-0.4969898043802982,0.4108223512471691,-2.757622954433999,-0.47335434986662106,-7.082086648105013,0.5272440939720202,5.5128153566948495,16.125,791.0625,-487.1875
485.0,R,-3.5667105203713354,-4.661539428077922,0.1710528257740766,-4.164880709893297,3.247997607173661,-1.9999980073380401,-8.974613665001348,0.0,804.1875,-469.3125
486.0,R,12.670617147509867,13.609475223014758,8.156812772903452,9.055484425853987,6.161534776845384,5.493173195698976,5.712433758811003,-12.5,818.625,-440.1875
487.0,R,-12.97129044844328,-10.197846458589595,-9.956612771707542,-8.241347256470966,-5.580762048868615,-7.229713209413659,-0.8743511019336905,-3.3125,812.6875,-460.5
488.0,R,6.21228850420432,1.831298603473012,5.202534155555689,5.351530645245998,-3.4923081964361327,4.933886888210005,1.1309496148858733,23.8125,786.25,-482.25
489.0,R,-0.5431342474132272,1.5042619245065534,0.7706573957731411,-0.2212844486314764,9.679192847731409,-0.5276716531943442,0.5664350042783308,0.5,753.4375,-538.6875
490.0,R,-3.7414868184918975,-3.865406342986403,-5.0799473094456005,-3.828880449044891,-7.584458149028909,-2.692333966635939,-1.2109468032811557,16.0,749.125,-542.8125
491.0,R,7.89731561717969,2.941125399040555,7.619667980508726,6.493876993755022,0.39942700273164883,4.839785185298466,1.030682044944929,23.0625,752.25,-535.3125
492.0,R,-6.667206393449269,-0.3094497021380166,-5.9339169985883125,-5.384749795745286,2.2940364252682226,-3.5967265968557753,-2.7473250021101694,24.0,743.625,-551.0
493.0,R,1.6623372617920011,-2.401335055108392,1.983194779266321,2.0784717844321356,-3.30960978617528,2.5419013135425326,4.237406801202784,20.0,749.875,-532.6875
494.0,R,0.7747090562332142,4.901085930155857,0.057923386619406755,0.03570423563614395,5.361470209192871,-2.06427547905208,-2.5260926399722945,23.25,752.4375,-539.6875
495.0,R,-4.476342813246549,-4.969064981991257,-2.8937672727240846,-2.2279229977149657,-3.220240968969185,-1.5091884578231791,-3.108819920014411,19.0625,760.375,-527.875
496.0,R,8.126896764707888,4.159832670921602,4.5077415772768585,3.6021973713736233,-2.07910030055243,4.072066178802384,4.724462350472017,32.375,734.4375,-551.125
497.0,R,-3.472807008936039,-4.020750998019137,-4.324368678097555,-5.910656749213536,2.218322159370861,-4.066860863585659,-5.292157276145077,47.875,720.6875,-583.4375
498.0,R,-12.737995088878163,4.82569177843512,2.5901722567336996,5.632492853655039,1.875450467629786,3.4528613819549645,7.447459769143646,63.0,728.75,-562.8125
499.0,R,13.012343125045168,-5.960594887737036,-1.1355374842757442,-2.1218293668816415,-6.745311475840312,-1.0867502035209318,-5.217799542920756,53.1875,760.5,-525.1875
500.0,R,-4.380166019338167,0.3249862175531358,-1.9999491131383698,-4.4518275717363,4.480478698379307,-4.581784635294395,-3.7679782894655007,59.6875,719.1875,-578.25
501.0,R,0.6871514829030948,1.8510172106151168,2.651182994664052,5.356497799650632,-0.5922432520763414,5.372404007203699,8.364760201279601,25.1875,756.75,-526.5
502.0,R,4.415365889934342,0.7065835476541988,1.0068401005166225,-0.19208151562285639,2.2394670197015936,-0.8073411548523846,-0.03793352988619154,12.125,756.25,-536.625
503.0,R,-2.302127069836244,1.7757980669487083,-2.4770535212302445,-1.454823193427573,0.5837281222139745,-2.607696792049286,-13.126040181582272,57.8125,737.625,-556.6875
504.0,R,-5.137583257057586,-3.6407893848827237,-0.5467431105939468,0.1766389511376028,-6.137504011276465,2.8246027250141243,9.922618040839312,29.6875,769.4375,-499.75
505.0,R,7.292523623196726,6.997958521598835,6.589756868015664,4.511599701110469,11.505032915797571,1.564099866541962,3.771577969304075,47.8125,743.875,-552.0625
506.0,R,-1.552948349299318,-10.453909489170298,-9.175763869785687,-8.410985725021806,-9.796496037432718,-5.1222175694534045,-7.434970502665167,47.25,757.8125,-532.8125
507.0,R,7.10621965472904,12.787103039029553,10.262320350423977,10.909713345180338,6.178167364105716,7.433898703037055,6.99035327232551,19.1875,763.5625,-510.3125
508.0,R,-8.15898703298966,-6.714241587362327,-5.00556100688049,-6.947667254915695,-1.7776379223353087,-5.717201319514938,-2.868651605152332,20.1875,737.875,-558.8125
509.0,R,-1.1085654903310516,-0.15761032613755788,-1.8423624221654769,0.09104551026115348,-1.4148968778359985,-0.634178226667088,-1.4845658889793627,37.0,740.75,-547.3125
510.0,R,9.090133781111035,3.0311870088293813,4.183878308781949,3.4600384510642432,-4.9819200240115675,4.717295901803498,5.965904657022527,13.375,776.625,-509.25
511.0,R,-13.293547930126495,-8.069934559759194,-7.915474582421385,-8.978243225598519,4.284673907978807,-8.076931068667328,-9.886569862336374,53.875,735.25,-556.4375
512.0,R,4.935771957775092,3.3203057864001075,3.9363830189250684,7.083395182751025,-0.9801649194322753,4.94559490533219,3.9527602413707648,31.6875,770.5625,-508.4375
513.0,R,9.795416015153522,10.713209794353304,7.432145014137425,4.8315242559462055,6.593961969938011,5.837434625045155,7.583831167757651,37.8125,811.5,-446.0
514.0,R,-18.310430096044914,-16.622963224926433,-13.971753976940363,-12.771278343545587,-8.288205050873016,-12.604857511251709,-16.35759965745276,28.6875,772.25,-518.875
515.0,R,15.062424463402117,13.068222014340034,13.03855948148069,12.681969866969983,3.150207297054917,14.665844080036774,17.825122974023937,16.9375,756.0625,-518.8125
516.0,R,-4.890664463506402,-5.1975158649883415,-4.491178479112632,-4.812194628329385,6.775920806722626,-9.406726306817706,-7.613983722899918,11.875,782.5625,-497.3125
517.0,R,-7.302415004190731,-6.213591984872883,-7.139335038830406,-6.432862944972921,-9.585381518474556,-2.8632159506962727,-8.616514692289963,53.6875,780.0,-504.1875
518.0,R,13.677481969166077,11.469176233596853,12.881439373499264,12.075789927668035,4.348575153321651,12.139165752478247,18.230281333698294,66.25,778.6875,-468.125
519.0,R,-7.2030447568935045,-5.197079104007143,-7.803160928190444,-7.460020319448357,0.8922692116711787,-8.640470398177282,-9.668409187914873,34.6875,771.875,-520.5
520.0,R,-1.6348342761663504,0.34635768247578747,1.9814501732784147,1.262051951557883,-1.1564048295942557,1.0600208647547602,0.440989633037002,-0.3125,773.6875,-508.625
521.0,R,5.185262750716873,0.373160124187626,0.19186011445186235,2.1296552364622428,-4.855118961597121,2.641037048906028,2.9766684482373793,12.8125,791.5625,-478.3125
522.0,R,-4.987357994789185,-3.3359379187699223,-3.0283327353304834,-5.818630439013266,4.6569724712664415,-5.498068441937183,-8.461755808068045,51.9375,776.1875,-504.875
523.0,R,-2.2604160003838034,0.82957406534455,0.5793451689517706,2.951571978780838,-3.071123793249554,2.0138368208747544,6.663939731062917,17.5625,789.4375,-485.1875
524.0,R,4.651789297087273,-0.6362553348799702,0.0066739089540446914,-0.7154485830962849,1.013041951080139,1.0327921852459159,-2.2022365315763417,-0.8125,795.3125,-473.625
525.0,R,-2.011252808774184,2.4142390568505983,-1.1443756906685403,-1.5510106635980054,1.0261938128553154,-5.082626435805914,-6.849485843853291,44.0,771.375,-515.1875
526.0,R,3.985514479895743,0.4486852579715769,5.277402378593817,6.704798957357418,-0.538858848665951,10.773236878190291,13.32356580054656,45.6875,774.25,-490.625
527.0,R,3.4030584712953424,7.504866899387039,0.23589261698345035,-1.4752183054491153,7.848574833012034,-7.012742645692159,-7.702414748193902,40.3125,775.3125,-503.6875
528.0,R,-11.264888633399295,-13.21002263744687,-6.2457465245663055,-6.011867080243639,-9.98512119766807,-1.4712367858309299,-4.32479485323438,-19.0625,798.875,-477.5625
529.0,R,6.556417368052866,3.9145248316484085,2.7026038442737623,3.755100695053487,-5.166324397886141,3.1551592065462515,6.0610592393858,33.375,789.0,-480.25
530.0,N,-5.762830884625586,-3.2858098340210833,-4.522223082581423,-6.23175148358137,6.984839074753272,-5.762392982049085,-7.496342188085203,84.0625,760.3125,-519.6875
531.0,N,1.7525312992396267,1.9865459828530148,4.925389733237906,5.322418325310848,0.38031188695162566,4.301187167749859,6.026229514437955,45.0625,780.0,-492.3125
532.0,N,5.444915702220865,2.89396398133797,2.7991974343863135,1.693399982938343,0.6050461092947764,2.641568364521361,2.916303748844912,46.5625,753.125,-528.75
533.0,N,-14.691472973668922,-7.718368642437301,-12.264786484878496,-7.400284426130002,-4.424042367071207,-8.978522555101849,-0.4083842394377734,47.0625,765.0625,-511.3125
534.0,N,31.317372629736283,19.217733156715575,23.7877731469719,19.05396238814284,14.14440086847476,17.63941808841021,7.211197846225455,43.0625,765.5,-512.0
535.0,N,-33.94771036150513,-22.537039460447684,-25.781189297922648,-22.67420173572863,-17.90610540440509,-17.963562418447122,-12.09725581639664,38.0,745.3125,-545.8125
536.0,N,20.890489802432004,15.438414516619062,16.31825391063267,13.94325106478438,11.98372502615517,9.700738023845924,6.300629726339004,31.8125,738.1875,-557.5
537.0,N,-18.176502143640885,-13.717676457339628,-14.124973742446862,-11.965349414103581,-10.822402460111268,-9.064310776276463,-6.91603515605481,42.6875,751.0625,-534.4375
538.0,N,12.463293313438932,7.230031858790449,10.99432894631505,8.304269157111104,6.7177522964345515,9.279749372886458,4.1856008448427255,58.25,752.8125,-530.75
539.0,N,12.627215045225645,9.743850442204813,6.287074840814993,6.8171244563160736,5.461883205523904,3.737431005956442,4.151239662585588,48.125,747.8125,-541.625
540.0,N,-17.793833749611778,-12.185843130941977,-9.706237653180121,-8.816604877210597,-6.765550324991343,-7.032006613027604,-5.089293855207744,43.9375,751.9375,-531.875
541.0,N,5.787942778365092,4.125149439237214,2.5268515473672313,2.056514565916578,1.866205858665241,0.3889832272668584,-0.14764200007721864,45.8125,760.8125,-517.0625
542.0,N,8.849621287817678,4.545267462687202,7.040367183930681,6.011869217067173,3.0790311628240836,8.369735979994386,8.506003674960363,50.375,759.1875,-522.0
543.0,N,-17.715314726678443,-8.932588160412198,-13.633987875400097,-11.194347227679497,-5.589512179564445,-14.581523511238437,-13.43974291323332,47.0,756.125,-524.875
544.0,N,15.301560236775211,8.331424226612606,13.4897892358618,10.23138771021882,5.590480098740527,14.704945920873083,12.91521039538753,43.4375,760.8125,-519.625
545.0,N,-9.667248354847407,-5.3381504751995115,-10.081039825929725,-6.614138306303425,-4.774275230725727,-9.544632137855025,-9.230064552118272,40.25,763.0,-517.0
546.0,N,-2.7514417053068545,-1.8998848299865485,-0.7917023508537209,-2.3151372830211514,-1.6367698710088299,-0.887991642442103,2.570952682994721,43.9375,762.25,-517.25
547.0,N,13.960057525999797,6.9487726084993495,10.509816609891056,9.255837767383955,5.9169161099878,7.589714645058526,0.5580258414301988,41.1875,762.0,-516.4375
548.0,N,-9.121201303482083,-3.909241971666848,-6.479920817549317,-4.811442383300965,-2.8614704589833058,-3.5248629944070453,0.6317148941374511,33.9375,754.5625,-533.375
549.0,N,1.3607747602329927,1.0803556168333162,0.52591393946268,0.2551424947385385,1.4496965071239065,-2.5975994539017258,-0.45285664213122984,31.4375,747.1875,-546.1875
550.0,N,0.5180112492647968,0.5671664674084205,-0.38900934915990776,-0.9003602283784917,-1.186020502235765,0.9371408646663972,0.47464456453948334,30.875,741.875,-552.1875
551.0,N,-5.086624153328288,-3.4419888809687817,-3.965906694312457,-2.942210657585779,-3.703469627428405,-1.8534175954331114,-4.846831408447794,28.0,742.0625,-549.375
552.0,N,5.663679294371915,3.6214667565262517,6.145609756517413,5.138151452327373,6.331933499003387,4.365465478155126,7.072785838397441,28.125,744.8125,-551.9375
553.0,N,-0.32948953348333454,1.0781211104248987,-1.0049865469961432,0.15036691590879764,-1.1664858256747752,0.35489680853974553,-0.7959577750906582,28.5625,742.8125,-545.5
554.0,N,-11.719920019140579,-10.222344753037982,-11.782651629175176,-11.161853749570861,-8.822504775706625,-10.415505339887357,-10.229783890569877,29.0625,741.375,-549.75
555.0,N,7.717063646339828,5.451032259864551,8.677855593287264,7.586010196507467,5.786773161883251,5.580779089309232,6.866851940705531,33.125,747.5625,-543.1875
556.0,N,19.191591061739004,15.352341816826785,15.71882320501788,13.21903009826472,10.215179502086176,14.071520858142664,7.656673554430122,35.0,753.5625,-532.3125
557.0,N,-22.60593401560564,-20.79317653005676,-19.59001030666813,-17.174101946303338,-12.659400557736015,-15.568267955826284,-12.049063977240396,19.5,745.9375,-546.375
558.0,N,3.9554282423096296,9.007425755942089,4.822653328887267,4.7512755284828865,3.580765700990646,3.694942093324567,8.042913767878773,18.0,750.0,-538.1875
559.0,N,6.097937864398639,-2.240524306882819,4.369084099323679,2.733720832729571,1.7844833780609246,4.83970846123237,-1.7885195018217155,24.375,753.5625,-532.25
560.0,N,-12.284774261459845,-4.979990885146585,-10.493252347436147,-8.027981010085945,-6.734981973961942,-9.093748825105248,-3.2210092470779887,20.625,743.375,-550.5
561.0,N,6.530857766681238,3.4212865154880028,4.944947012066283,4.839993308913957,3.779325607940056,4.81101995052265,-0.06661627499357962,12.875,739.25,-553.25
562.0,N,3.235576636837032,3.9540174409199915,3.662918173132223,2.2246601067715774,2.6370879420401354,2.8553822384201104,2.9686095094885583,7.3125,740.4375,-554.75
563.0,N,-13.645333054794413,-8.925901356574963,-12.201783653005705,-10.228377733537421,-7.991666527294865,-11.96150994178356,-5.855838912190432,5.6875,744.75,-549.0625
564.0,N,16.11254172977813,10.241526552196065,13.027086059685328,11.682526464088708,8.884922596098356,11.177320575104135,6.40587043562291,12.5625,750.5625,-537.5625
565.0,N,0.6429430402188027,2.7777366268687276,-1.38560798068651,-0.20337010482688583,1.2370482141538577,-1.0199815028515868,-0.4694800458597683,16.4375,751.6875,-536.5625
566.0,N,-7.045386939709722,-8.28678277941381,-0.6854006098564059,-3.2265402107374013,-5.670653764599827,-0.9978948719731866,-3.1894030896502916,20.25,747.4375,-543.375
567.0,N,1.806831820776315,3.0603289299310052,-1.8362738950554363,-0.43238895713214603,2.3936929029266873,-1.1846374678653004,3.095908318314893,18.9375,756.25,-527.9375
568.0,N,0.2686271078360127,-0.9910008328324834,0.48046502515309564,1.3449257447607543,0.5232319793628833,0.17580511649850428,-2.053792946755049,24.875,773.1875,-503.5
569.0,R,-0.012711038824982894,0.8837250813364749,-0.5942901625955083,-0.9613825667467814,-1.7879974178023326,-0.9462222277378073,0.10600755621363692,24.9375,773.6875,-503.6875
570.0,R,-0.7651129215132803,1.7853790593111785,1.301113658019186,-0.49589386847733635,8.370043335725477,1.8812074184783836,1.1424193054374348,33.8125,771.75,-502.875
571.0,R,-0.4762247776289229,-2.108852946568373,-0.4088640108926917,1.5565865747383123,-6.5028743839139524,-0.6180794980722354,1.1543846491578458,25.0,781.0625,-502.5625
572.0,R,-1.662798042145254,-3.101439547398488,-1.5795545345108777,-1.7424434356849359,-8.56681211325914,-0.15160679008499214,-3.3863701271449163,22.1875,766.3125,-514.9375
573.0,R,0.8832635628736197,5.2915015965107095,-0.7036890965422663,0.296182199626847,6.9029360520081555,-0.6290045899984339,1.3794805999517257,18.125,762.0,-521.8125
574.0,R,2.631170046052035,-3.353529127383424,4.273971420119167,1.8150353145214846,-0.6677005017305855,1.9701557981545106,1.332947670311607,25.25,773.5,-509.875
575.0,R,-2.903355683306783,2.210244284136511,-4.246748351817972,-1.7366301589381037,-3.5233822667710255,-2.20637035359316,0.9468624021147067,25.5,769.375,-515.1875
576.0,R,1.5680480554896425,-0.858037240211071,3.1558750510860483,0.56681965256235,7.153787581764438,0.781316224552269,-2.320365845803033,28.25,766.8125,-517.5625
577.0,R,-0.6481377906200234,-1.693001502266514,-2.5758685276892743,0.6270897022450247,-6.2553031778731985,0.6260222942378914,2.244256261550785,9.9375,771.0,-505.25
578.0,R,0.05134444797766847,-0.9653435722368411,0.5371312370616056,-3.0693711829203223,4.953363780851521,-2.2728728470480393,-5.3075881543881955,10.125,735.8125,-567.5
579.0,R,-0.44258376528947246,2.258556300411323,1.8945099794364724,3.3965440416958677,-0.6409261653159947,2.761570752164811,6.092570696906048,11.125,759.375,-523.5625
580.0,R,1.2770529490252165,-0.5767438730887158,-1.7461393572345854,-1.7396056154435096,-1.0562251777470415,-2.050521164752655,-1.793674558788,45.3125,760.125,-525.0
581.0,R,-3.6673170762284975,-1.8194315473550042,-2.499318273643309,-2.132966105353925,-1.217086533905051,-1.9555837745582398,-3.713787040900338,60.75,757.1875,-531.5
582.0,R,3.7443177688477216,1.7765155724396164,3.6695804035765502,4.488606877668901,-0.22149258696984908,4.6008755334164855,5.38335267641025,26.1875,790.6875,-470.75
583.0,R,0.595355751905653,0.983343876764071,0.4776404644547606,-1.881769270931119,7.8543566726716865,-1.282750388074273,-4.678218321490818,19.8125,745.625,-555.125
584.0,R,-1.470833791791425,-0.405404301350981,-0.8845657192926476,1.1154917369620891,-4.160586971975759,-0.21280442113061396,1.8920429664788398,34.0,764.75,-518.0625
585.0,R,1.0466011578727132,-2.2962427989746512,-0.726326860154543,-1.8417984360369897,-7.168324588171473,0.06790993769503302,-0.13404784395107366,59.0,751.0,-534.75
586.0,R,-3.658632134677776,-0.07065886949413334,-2.0261932914538274,-1.932062568487877,6.100486171279006,-4.603793915630013,-1.2234836216263139,65.875,739.125,-551.0
587.0,R,5.09998258001656,2.2792703648772217,4.012306888700678,4.881518673098645,-2.323588699161236,8.538391059626619,4.359068284615787,34.0,748.1875,-533.6875
588.0,R,-0.9571094563006154,2.4068632676911283,-1.5643041714323398,-1.9723397816497394,5.5707129572225424,-4.827728791982514,0.38740704374663254,39.625,720.6875,-577.75
589.0,R,0.005767142765962944,-1.2697339161033816,2.598391227441982,1.3758078323077425,-1.3482734704155355,1.3966521304264783,-2.404476623272851,42.0625,727.75,-569.3125
590.0,R,-2.1229603836815403,-2.4528219478441096,-5.083384459310903,-4.48489109906281,-8.037468493219373,-1.8715889436514912,2.4517906242360676,3.875,756.8125,-530.9375
591.0,R,-0.290421357142788,1.0841969696847131,1.1976628530704125,1.8350979278507138,7.765603679924293,-0.1445671750573815,-4.4507584736223915,9.625,734.4375,-563.0625
592.0,R,1.050564657381306,-0.7730049953753805,-0.9195538148576745,-0.26181651114184684,-7.848400768623598,-0.09753732613331988,-1.5925582274957981,18.1875,745.5,-545.75
593.0,R,0.47731704503531525,1.347285393609729,3.28200597650286,1.5864563643455711,9.235621470613925,-0.33818735315066806,1.4578203225187316,36.3125,737.75,-556.25
594.0,R,-0.12462554133285902,-1.4843483878074586,-0.8087055675714245,1.0270118641873498,-5.581567636664742,5.582137058038304,5.175660681676351,40.375,761.3125,-519.0
595.0,R,2.4562139960602267,2.7643068794431027,1.0810028810382872,-0.7907167265853595,6.938371007265786,-4.019313772333585,-2.311920622438871,26.625,744.625,-550.875
596.0,R,-3.03027418114801,-2.421520090199513,-0.4046847566194282,1.1106955080852157,-2.862892555109497,1.3261539149963824,-1.225523723497362,27.625,754.0625,-533.0625
597.0,R,8.27724556143081,6.7664841724446445,3.4285525728211876,2.420799385554796,-4.817830181547648,1.4270492295414625,0.6934925702573037,80.3125,722.8125,-567.0625
598.0,R,-10.62136168677129,-10.139928452955749,-7.773461414952929,-6.875059142111184,1.756683072907114,-5.401450525315628,-2.641505758085392,66.0625,720.0,-581.625
599.0,R,6.1649382214628075,8.12335151484034,7.345152585113932,7.387462316413164,2.3534565828869427,6.5268318461864405,3.78096847740884,36.4375,751.3125,-530.25
600.0,R,-2.4378477197352586,-4.39867309253721,-4.034135551337406,-4.689814968591706,2.6887248138554334,-3.794616036388153,0.5193422531819888,36.1875,747.875,-543.0625
601.0,R,3.8303492867571913,4.347462256664005,3.432716283756688,3.850035185427356,0.5422274034965266,1.851763374639833,-1.949701841006697,28.0,757.625,-532.125
602.0,R,-7.527594093745764,-7.452747827059847,-4.426203952621947,-5.037660013416738,-12.211295299155427,-0.7570777636627958,0.8085395929994704,71.75,775.3125,-495.8125
603.0,R,3.3313583032922827,2.9148006104817683,0.7608641610200757,0.24109446419971847,9.622232133843966,-3.552056386665307,-2.700137858763761,61.0625,749.625,-538.375
604.0,R,6.975347819238119,6.033229459385276,7.717248189720924,8.61623417263916,2.9756293783305163,10.431547769723204,6.647167165501919,33.375,772.375,-507.125
605.0,R,-8.936347242555028,-4.111224956743777,-9.623154061195972,-8.814489076757658,-2.170776773395649,-10.40960456966086,-2.9590092248988005,9.75,752.9375,-538.4375
606.0,R,-1.6905831032798078,-5.2668840660476235,-0.8358727232132951,-2.3244114755513965,-4.362921632802045,-1.4945277333419436,-4.750799102348513,53.4375,736.5,-554.625
607.0,R,8.401925278185532,6.474081849317106,7.111687874461792,8.832940688600287,1.0041283269999222,10.078680424644558,5.040573735625032,78.25,740.875,-539.75
608.0,R,-6.385831814300124,-1.9138198333638912,-4.779945607398914,-6.529577904769039,3.585603837340276,-8.624380532158742,-2.8466909332318466,60.9375,722.5,-579.1875
609.0,R,-0.2381526875454556,-1.6157912368260714,0.6177771385693027,1.4872391039901198,-2.9079007362667864,2.9390342092995403,-1.0612325464789618,46.6875,757.25,-529.5625
610.0,R,3.012199999585458,-2.238439316095415,0.07316398291034602,-1.2506180122715078,-6.853878625586133,-1.3758181164715915,0.5102926762597754,32.3125,766.9375,-516.4375
611.0,R,-3.216771232902218,2.260394351417983,-1.055446368285182,-1.1278499010406704,7.266970967209967,-0.864950631127691,0.4747852267799781,41.0,751.5625,-537.1875
612.0,R,4.946086815918783,1.6767719080456787,3.3967737774480264,6.607354924781783,-0.15024000545584215,5.0740028953098575,1.662046850655638,19.8125,732.625,-563.6875
613.0,R,-2.8722030319875613,1.1683949489012324,-1.5546376905665094,-4.433534231681835,1.8683181218789204,-4.0810696237565,-2.6787104872824345,34.875,737.5625,-560.625
614.0,R,-6.589883278337591,-8.895617519658858,-5.3382843694324675,-4.448019023630107,-5.117516699047403,-3.9392877593106106,-3.9404049309046805,59.5,773.8125,-502.6875
615.0,R,7.68050966845511,7.6558710039659665,5.507439251720525,6.692901527577376,-0.8899040597754493,7.32327262911115,8.089871990970474,56.5625,790.8125,-471.3125
616.0,R,-2.8574419690715223,-1.4982736973311122,-0.9768397846431094,-3.7434315414106742,5.156445164580959,-3.759777081397874,-4.899541320256437,62.75,745.75,-545.0
617.0,R,4.956176646051128,3.8387298190629626,4.763427258278094,6.426395281497684,0.708047112907102,6.112195776923711,7.74044123300317,72.25,740.25,-541.375
618.0,N,0.04517813861180548,1.847988989162096,-1.9518897148952874,-1.9074394926385885,4.832946867596147,-3.640292505127829,-5.098083155209503,130.8125,744.875,-530.25
619.0,N,-11.88138475366564,-11.443765715915877,-7.7893653611696205,-8.026546798531653,-9.465840495552237,-4.436042279933823,-2.399748282278252,86.4375,750.6875,-533.875
620.0,N,11.476060599409934,8.066037520907148,8.238361989915703,9.00772440639434,2.158237518422944,6.922525057966212,3.829364383949356,27.0,770.8125,-506.5
621.0,N,-6.765808344872282,-4.615157359030427,-4.922202569320059,-6.811210413148514,-1.8471918867709982,-4.790261410085412,-2.8181536250504724,20.4375,767.5625,-515.25
622.0,N,2.151776281491444,2.484388918068168,1.0155144745077023,1.678460782561484,1.300409312024763,1.1449955730900303,0.1365575212117243,34.9375,743.6875,-547.875
623.0,N,1.9852575364154288,1.6254089995094088,1.1031249748189182,2.579693380726112,1.4752674501094583,-0.4731272032671314,-0.2526753506591075,41.75,730.9375,-567.9375
624.0,N,0.15261692010105027,-1.9104738275059765,-0.07271419298417242,-1.2063899639482296,-0.20936945381109565,1.3426615552825236,4.8405610266190955,31.625,744.0625,-547.0
625.0,N,-1.416342166046653,1.637658732529309,-0.5067300722810322,-0.15533375560791807,-1.0494580459838825,-0.34708818388956275,-4.3666489113458935,33.5,750.25,-537.875
626.0,N,0.77491031747363,-0.8310190884165722,0.15103250873211688,-0.3024587909867397,0.8717004591225987,-0.31793123507132487,0.11199323639940803,35.125,762.1875,-516.625
627.0,N,0.20966793882770707,0.22500957365686247,0.8896941865781435,1.3434735627396968,0.5982297791922424,1.207123558686268,3.468508543430985,36.5,763.5,-515.5
628.0,N,0.3018527730669944,-0.025827089721726225,-0.2321581631389854,-1.3736359725610578,-1.4274537293420893,-1.9423401881953848,-5.143219096561773,35.0,755.875,-526.125
629.0,N,-0.260599515400712,-0.4700038773549686,-0.6041865818076407,1.3498746543022708,1.3862881561183016,0.801121977321363,4.04217931668768,30.625,754.3125,-527.5
630.0,N,-0.28477113595479286,1.9618414346606432,1.7936717769464434,0.29553095148908554,0.5796499498994587,1.0613544291911066,-1.3950991794586185,32.3125,757.1875,-527.0
631.0,N,5.331226381275019,1.4679991928209033,0.9208370677223215,0.6952452126076444,0.3059363348414422,0.4844198101665006,1.7995584634148785,36.9375,752.8125,-533.6875
632.0,N,-5.6402258699449215,-3.409731928286112,-3.0699533233206058,-1.4272667212927925,-1.1409623628709458,-1.436538901053288,-1.7669670838807487,33.3125,747.4375,-543.125
633.0,N,-0.4804272610879352,1.3802364266660878,0.8145946478862933,-0.9881229689935456,-0.9733075519760501,-0.14072956465724543,-2.196325667855166,23.875,747.0625,-543.375
634.0,N,1.248853765702679,-1.8563456512337664,-0.5305884024669593,-0.06143785505421022,-0.08275396896020994,-1.0584471120938763,1.7075219408932325,19.6875,749.125,-541.0625
635.0,N,-1.7443309041455464,0.377877029401315,0.39160513169425076,1.3011237363666168,0.9550462240703875,1.6746214488789164,-0.20990402963609311,22.625,751.0,-536.4375
636.0,N,1.9780104452126561,-0.2481074727117274,0.24352528064017645,-0.8341263802025312,-0.2440369873745999,-1.3287132973757874,-0.39088547578690075,18.5,746.6875,-544.375
637.0,N,3.76158797327293,5.888306614859159,2.3392578723254176,3.729562337941551,3.384724378085795,3.3621870471519695,3.836685530491658,12.9375,746.0,-545.1875
638.0,N,-5.588382284392446,-6.8430603353296435,-2.75460818119501,-4.607169389079096,-5.023982946855389,-2.168245328182998,-2.005559903874321,11.9375,746.6875,-545.1875
639.0,N,2.2265288456070316,2.6244729400041638,0.15663938137907182,2.1300135512371825,2.3158790517407652,-0.8981004331867084,-1.1966466700578402,14.9375,747.0625,-545.0625
640.0,N,-1.0197775020995228,-1.4207936278322255,0.06144093893785981,-1.3337328311703467,-0.8154202313628707,0.21532845499238557,1.1309464546862074,16.25,747.4375,-545.625
641.0,N,-1.6232755428944912,-1.4376901786088865,-0.9772442048270222,-1.360339430881001,-1.7738758459947144,-0.5566982755219815,-0.9771891747874426,9.8125,747.6875,-543.5
642.0,N,1.6345780077561756,2.0980389801094717,0.704997508191732,1.2903847070224306,1.5096279350112067,0.13274384993187674,-2.9165155144624255,8.125,749.0,-543.1875
643.0,N,-0.5946514533947238,0.7134106469539567,0.14977145416040286,0.34358026997606317,0.3787934680774249,0.10150103384515433,3.0117080876627944,10.75,750.5,-537.5
644.0,N,-0.9458461705525351,-2.625143719215189,0.36062892047012385,-0.43761692155666926,-0.2234499900684773,1.1202736909474624,-0.313819782618325,13.125,751.1875,-539.0625
645.0,N,0.5876121569155714,2.2636705628605704,-0.3926197949465577,0.02327170837454082,-0.21636523894541165,-0.29489137965744155,-0.5696165915158644,6.75,748.75,-543.125
646.0,N,4.286040335270505,1.0373755889782341,2.914864129783967,2.035118954009824,2.0035615485406506,3.310041823600165,3.2080295482627585,3.1875,748.1875,-542.8125
647.0,N,-4.38250801932601,-2.3288403552362915,-4.149170683669268,-2.3494340815375083,-2.39827857570868,-4.989943451172301,-4.927387413672619,7.6875,750.25,-539.5625
648.0,N,1.3504200947216076,0.01827887345246498,1.374502988789705,0.2575291839266334,-0.18461316921347834,1.0722061028114347,3.2490167858850167,15.25,751.25,-536.25
649.0,N,-0.018039893886562366,0.44754907915117653,0.12706148550495527,1.122225438686787,1.170200828470351,0.5732486704511934,-1.0941405072733674,15.125,747.9375,-542.6875
650.0,N,-1.055151012487092,-1.4418387463087885,-0.5436811340881952,-1.8495831767673228,-1.3876296274159856,-1.5262681643432965,-2.2732076874356015,8.375,743.75,-550.625
651.0,N,1.6404028027080921,2.0926659762352684,0.7440522898288005,1.2327963845792278,0.8795951099004099,1.4454315169841585,2.2109220791940443,0.625,741.8125,-553.3125
652.0,N,-0.045429089520870665,-0.9937899250324685,-1.339026952244479,-0.6413815724510946,0.5156560121736191,-0.8036486751037446,0.2252877332493304,2.5625,743.625,-551.375
653.0,N,-0.4379467509704956,1.8551412458634837,1.9347922033993155,1.9083210005130136,-0.2358576969282069,0.7794337512408555,-0.9340205376098015,12.875,742.75,-550.1875
654.0,N,-2.313939428535854,-3.0178082941504325,-2.0414648122977592,-2.2817653220096634,-0.7143630120461294,-0.030390908446696927,0.8582371010657761,15.6875,741.5625,-553.0625
655.0,N,1.9158148111948923,1.6042178114233756,0.2767583144770694,0.6046594616038335,0.31935224757546377,-1.3443321515921127,-2.2957328725074517,5.6875,738.875,-555.75
656.0,N,1.2610015802374188,1.239792014961596,1.038287600814221,1.6210113795175336,0.33576361487835765,1.9634563906476266,4.208136504691021,1.5625,739.25,-557.0
657.0,N,-0.284372696217373,0.12094696815985617,0.5598652788512185,-1.0256179934694905,0.3748757579436638,-0.36722253481838585,-3.1648134850554537,11.5625,744.0,-549.625
658.0,N,-1.8799638541501622,-1.0764446071260991,-1.2132394887884663,-0.7240923853795966,-0.6098047715038416,-0.8949687760034549,2.4677814562330767,15.1875,747.0,-545.875
659.0,N,1.4158353068851293,0.8308215067335631,0.9448129096990192,-0.05255730381936672,-0.5562013589421138,0.5112496588755954,-4.217632476256715,14.8125,746.0625,-547.125
660.0,N,-0.31472402896423385,-1.3210900892765909,-0.4756783084391161,0.952166121608034,1.012225028629568,-0.5597574282395812,4.638939089643298,6.5,739.75,-557.0625
661.0,N,2.3214337377459744,2.398075553557848,-0.40636914662461354,0.07516158700252891,0.17186375296302595,1.595648603069756,-0.8617057043101353,4.9375,741.3125,-553.8125
662.0,N,-3.4908019775401327,-3.6409256289157614,-0.41152552291696626,-1.504287490989831,-1.0881267214716903,-3.4056418498234597,-1.0818183338082816,10.375,744.5,-549.4375
663.0,N,3.358660363685619,5.1041224861602466,2.177418455804752,3.507640781761009,2.6281865940770257,3.8879726126846474,1.5111981582510907,10.3125,745.5625,-545.75
664.0,N,-4.045099624633511,-6.288083902536809,-3.4253694872230414,-5.806384898378552,-4.373568024696869,-3.2441197197581415,-2.298542621622123,11.9375,742.9375,-549.8125
665.0,N,1.7431137082839538,4.129247278732751,2.709975049962427,4.158753547148754,3.048993227065445,1.9752920144674946,-0.16822307195685732,8.8125,740.125,-555.1875
666.0,N,0.5300499889401653,0.21459953957365707,0.758050691729994,0.6180424304579373,0.2806445244471832,-0.1542311436640604,0.8851761276871238,4.9375,740.875,-556.6875
667.0,N,-0.30361878249732605,-1.6743775893102935,-2.9924702209449525,-2.0369500272067125,-1.2848262315290875,-0.4541456645318012,2.3753632522911943,2.8125,741.3125,-554.0625
668.0,N,-0.7718671284293062,-1.1619365363087355,1.3742072784166797,0.16012902480296828,0.28563493124136274,0.4691815830226977,-2.515031767947897,3.75,741.75,-553.125
669.0,N,-0.5272112287505631,0.032900489086604014,-1.0586988793067484,-0.744885579472731,-0.36525967359993594,-1.4687796250054166,-2.4267765376063655,5.9375,739.25,-556.6875
670.0,N,5.906672398627261,6.3784818869264885,4.192051534254352,3.8678217512413804,3.1085789453857404,2.725384688398348,5.044798249403817,7.375,738.875,-557.625
671.0,N,-6.032189750035606,-5.532196355737309,-3.9655595592818504,-3.221094145180276,-2.5719856343258107,-1.7119387992071766,-2.332208882407975,9.6875,738.75,-557.25
672.0,N,3.0803725185489372,1.8223533584293905,2.2462634447064977,1.2295311830436881,0.6020381538879644,0.8922690249030921,0.8810236850320889,7.0,738.4375,-558.6875
673.0,N,-2.3391830274227665,-3.6482190469867604,-1.7727633942234033,-1.9478744105993133,-2.0967224146854044,-1.8959739988671573,-4.149174352833461,3.9375,742.0625,-553.375
674.0,N,0.4215034549627574,3.6690785435080433,1.28639350377884,2.1298164193085043,2.4746472454650075,2.130226193165042,4.693113562612764,1.0625,744.3125,-549.375
675.0,R,1.1771014528017913,-1.10819163632006,-0.8734253070177386,-0.2209450854850577,-0.640152080555022,-0.2587089157475625,1.321968234651825,2.1875,746.375,-548.1875
676.0,R,-1.5093902741078522,0.16369109450619942,0.6260760553974692,-0.06547805020808306,0.7364470708432126,-1.9523204010966826,-2.639792034971803,7.8125,748.8125,-543.0
677.0,R,1.0876209202348177,0.7463438517887439,0.2989890763515086,-0.7012356107448849,1.5300173375757116,3.5816596399057445,1.387946125457443,9.9375,752.125,-537.6875
678.0,R,-5.531390550375318,-4.9323094941075025,-3.594700785695495,-1.1379209459369444,-3.172782754946141,-4.716348800711692,-4.7090055730232985,12.5625,742.5,-552.625
679.0,R,6.087018598890278,4.593453064040532,3.1085415857123184,1.2817976829166,-0.46717841888858264,2.825017991593767,4.249676972570746,28.4375,751.625,-534.8125
680.0,R,-3.3346313711854565,-2.808664139999888,-1.2712781205795443,-1.8709787750780913,0.9370113194092934,-1.6546476149299716,-3.4318346554490406,27.4375,742.5625,-553.75
681.0,R,5.7674554404051745,4.10152635186227,3.1104443585601915,3.5479569644168683,-1.9142334635117972,2.0525014031100226,4.584012284502121,43.9375,771.5625,-506.5625
682.0,R,-5.000556377972149,-3.7695631535346785,-3.3517864540479554,-2.7603411646144647,2.599161956509424,-3.048876694062186,-4.4558088171686565,52.1875,746.375,-541.8125
683.0,R,-1.6279208852956226,-1.9759903664216982,-1.3869260250035,-0.9926343607532758,-5.857587183237963,0.45618170329522856,1.65853114323211,20.5,757.4375,-528.1875
684.0,R,4.75168590430142,4.921371539161222,4.810697121887674,3.8741190940039263,8.20939430815684,4.6870974468954865,3.4430983766423067,15.5625,730.4375,-568.125
685.0,R,-1.608862211509988,-1.3526810206659583,-3.3058650386940798,-2.6372541984419873,-4.836949942415283,-3.942284342277645,-4.825150616668201,12.5,759.375,-528.25
686.0,R,-3.1610948257920826,-1.4643254725549255,0.6698184550590143,0.5373720058112796,3.465104902884556,1.6861446048078192,2.7794075916538157,16.75,748.5625,-542.0625
687.0,R,2.4488997498383696,0.4106603257539682,-0.7481251196531957,-0.873225955674654,-3.6079214567796005,-1.2108971587476232,-2.431802683335987,20.375,761.3125,-521.8125
688.0,R,-0.3513183595151722,0.9653960723365189,1.5178564030170583,1.2519639057503509,3.007553904809486,0.7182410621645031,4.362336089499757,12.4375,748.1875,-540.875
689.0,R,2.646803310395273,0.7966943079849675,0.10299092417152793,2.055130974570091,-1.5089810802877217,2.7257049758458587,-1.37140957075067,23.0625,752.3125,-537.0625
690.0,R,-3.578375837623924,-1.6044259054148178,-0.858596026978071,-3.3029670691309274,0.9793667753255576,-3.3159167134337504,-0.8504947312525217,40.5625,738.375,-553.4375
691.0,R,-2.5064037485737556,-5.089891445760099,-3.8540927281850283,-2.834776793879941,-8.186661527527377,-2.550919151788543,-3.264111462126492,36.0,761.625,-519.4375
692.0,R,4.078052935384675,6.812319872157093,4.959158914109173,4.12325018112572,10.842833794698704,3.523424229962072,3.300014287754513,33.4375,764.1875,-522.8125
693.0,R,3.3532252727342176,3.300015921102202,0.2620727265178398,2.0260831691285737,-6.688889745298243,1.2054536696156628,1.9604834626878167,26.9375,774.0,-503.0
694.0,R,-5.3542737783465055,-7.246506126981302,-2.2096010204243304,-3.5460270825931643,4.22823919218306,-3.5077863348321894,-3.8483962797444597,21.5625,756.3125,-531.75
695.0,R,-1.679092916062816,2.2976404678319122,-2.994635154785162,-2.1328951754973278,-8.22535482815323,-0.052577644938010835,0.3711180583915076,44.5,748.375,-540.5625
696.0,R,8.583825198238419,2.4916832770681068,8.859982127899642,7.20106682401173,11.680332202243129,3.3798216153628697,2.1121405402151296,44.25,745.75,-545.0
697.0,R,-2.997210196787326,-1.1135058385000771,-5.0181374838078625,-3.4295573329698223,-8.495534068626341,-2.4592429089405314,-2.472328868350366,24.125,773.0625,-502.4375
698.0,R,-9.4318168828188,-6.689992768305832,-6.26766298420509,-6.1119327512192045,1.2204805668619028,-5.467699452197583,-2.8027832831854123,67.875,759.625,-522.6875
699.0,R,21.840612531357113,19.66963193422325,17.71886308664504,17.19995732422671,9.637154960040464,15.708466742592245,9.910223970071069,83.125,750.875,-524.75
700.0,R,-14.986098617263808,-15.855743367067575,-11.037349958493756,-12.542334341540439,-5.21168339537664,-10.543188822336242,-4.871221047994547,91.4375,745.25,-540.0625
701.0,R,-3.1008730501812307,-2.261385066830515,-4.453119961802833,-1.897041215420945,-8.054969870575901,-1.7293664994293623,-4.845267457400088,55.9375,775.75,-496.4375
702.0,R,7.025669585509812,6.185656777703225,6.394358225208939,4.227488546991461,9.849970859084252,3.238096850442821,7.063886168953919,31.9375,745.6875,-550.6875
703.0,R,-4.706374727239933,-1.501465386421094,-1.7339781543475583,-0.5188954544908947,-5.203440812086898,1.262771338048889,-1.3655440429880856,38.75,787.5625,-478.3125
704.0,R,8.385397183649777,5.973033033102536,2.349764776860206,2.139969756747278,7.229794024963575,-1.2872889661195555,-0.8224961798468009,45.25,762.1875,-527.3125
705.0,R,-6.387002232886027,-6.045642340174486,-1.4976725170981757,-0.6780502836689466,-5.35634594634655,2.9245008137542823,3.5644081928674827,51.0,792.0,-477.3125
706.0,R,-2.1061247148224784,-0.10030785327255717,-3.328132826101697,-5.088656127908036,0.20823843997471453,-6.21562862612456,-7.564965753694606,43.875,768.4375,-513.125
707.0,R,1.9604380211280792,1.313766334429093,3.9914505469529273,5.421909898028829,2.935795881861239,4.871055603666824,4.7491382904554875,51.8125,773.4375,-499.5625
708.0,R,1.9645187703874263,1.925202412432177,-0.4532455911051011,-1.2010184845123777,0.15364735746880887,-0.5870448872631286,0.4983821282690515,33.5625,769.0625,-515.3125
709.0,R,-4.221336864298724,-4.666691369721723,-0.39673044185476714,-1.05742926827286,-1.0189861301278533,-0.46508620268173534,-1.25148055970974,47.5625,762.8125,-515.75
710.0,R,2.109573502539127,2.380156368885598,-2.347059710277044,-0.4616887382971736,-4.6886731584906505,-1.2686174238157173,-1.298061358040913,31.75,763.5625,-517.9375
711.0,R,-0.9515888156422809,-2.3244830303083956,1.990326005129165,0.6136971107249057,4.479718508827598,-0.7814263503092166,-0.06354101372588866,25.875,755.4375,-531.25
712.0,R,5.6073761937495865,5.460513321299776,0.709943195161048,1.3683239534165936,-4.1013076793339645,2.1199903703420606,3.39268680576598,57.25,750.125,-535.4375
713.0,R,-7.117558699723225,-5.9185312954089495,-2.002890427831884,-2.8729199323416736,2.658948304734091,-2.892500192459382,-5.82965647215536,68.0625,733.5,-560.5
714.0,R,3.672888830240784,3.1306203236620513,0.7856373437391698,1.8954031924070254,-4.651199055770732,3.5169173865131445,5.184682207114714,39.25,767.375,-510.375
715.0,R,-4.039159273376482,-3.9188469514629847,-2.1619605652692626,-3.4127837609231664,5.06601240412598,-5.213163731348928,-6.510646900165778,39.3125,763.9375,-517.75
716.0,R,2.5983723547091797,2.2475160228679893,1.4645523930695774,2.893831164421249,-3.2932533142788394,3.9988565053192224,5.245065950674555,43.625,752.75,-533.1875
717.0,R,2.2825891996573335,2.299723424418572,1.8653501323218935,-0.7960094610011275,4.2982837809310475,-1.160059379609825,-2.81015928433056,28.1875,742.375,-548.875
718.0,R,1.4680110917294442,0.7566992160383466,2.8958358299102653,5.665088382516741,2.6919153816322776,6.149724045175568,7.85355250935913,25.75,753.875,-534.625
719.0,R,-4.499305112708293,-3.177637042384359,-6.1844218048709,-7.853138836066147,-5.520085430409567,-8.080714683086647,-7.27577519198357,56.1875,748.5625,-537.9375
720.0,R,2.8003481031215576,3.0959389143443077,4.292905043321247,5.647110128109597,4.331740703934422,4.694615719662903,2.8954490591175652,43.0,773.8125,-504.0
